File: fig_2_xrd_bet/BET/coll_CeO2.txt
Relative Pressure (p/p°)	Absolute Pressure (mmHg)	Quantity Adsorbed (cm³/g STP)
0.00962913	7.43851	25.7296
0.0293693	22.6865	29.9197
0.0626726	48.409	33.8741
0.083435	64.4429	35.8256
0.0992951	76.6897	37.2285
0.119137	92.0115	38.86
0.138598	107.037	40.4688
0.158474	122.381	42.0419
0.178745	138.03	43.5987
0.198925	153.608	45.1305
0.248425	191.818	48.9486
0.30058	232.078	52.9768
0.35306	272.584	57.198
0.400443	309.149	61.2795
0.451637	348.652	65.8711
0.500557	386.381	70.5735
0.550686	425.044	75.7361
0.600342	463.336	81.297
0.651129	502.495	87.3974
0.701052	540.976	93.8065
0.752961	580.984	100.462
0.804337	620.579	106.328
0.818776	631.695	107.714
0.851086	656.586	110.264
0.877161	676.676	111.581
0.899211	693.674	112.275
0.925877	714.231	112.697
0.949639	732.547	112.899
0.975631	752.584	113.056
0.996942	768.951	113.376
0.974002	751.242	113.147
0.933865	720.279	112.952
0.90855	700.74	112.804
0.900603	694.604	112.738
0.873714	673.853	112.6
0.851003	656.331	112.467
0.824782	636.096	112.318
0.800394	617.281	112.159
0.750419	578.729	111.832
0.699743	539.637	111.445
0.649457	500.847	111.009
0.600946	463.419	110.382
0.555136	428.025	99.2673
0.503084	387.884	79.7817
0.427083	329.286	64.4207
0.404604	311.955	62.0272
0.342767	264.278	56.541
0.303935	234.338	53.3875
0.251234	193.704	49.2231
0.200081	154.265	45.2374
0.140592	108.398	40.5908