File: fig_2_xrd_bet/BET/Ni50Fe50_CeO2.txt
Relative Pressure (p/p°)	Absolute Pressure (mmHg)	Quantity Adsorbed (cm³/g STP)
0.0105076	8.04105	11.8611
0.0331917	25.3992	14.0104
0.0636018	48.6679	15.593
0.0789146	60.3837	16.2421
0.100037	76.5442	17.0411
0.12003	91.8398	17.7378
0.140102	107.195	18.4127
0.160098	122.492	19.0666
0.180143	137.825	19.7011
0.2002	153.166	20.3347
0.248537	190.142	21.8318
0.300903	230.199	23.4943
0.351008	268.521	25.1143
0.400848	306.637	26.8438
0.451384	345.286	28.6804
0.500995	383.222	30.6706
0.551515	421.85	32.8646
0.601379	459.974	35.277
0.651442	498.247	38.0412
0.701509	536.514	41.2653
0.751468	574.694	45.1454
0.80102	612.551	50.05
0.823114	629.424	52.6335
0.850676	650.459	56.7477
0.876236	669.962	61.6356
0.900856	688.735	67.8172
0.925261	707.332	76.2567
0.949607	725.862	88.5131
0.970521	741.776	103.639
0.97904	748.222	112.736
0.986292	753.736	121.983
0.991107	757.415	129.883
0.980593	749.381	127.209
0.974067	744.393	123.557
0.954673	729.572	109.639
0.926881	708.333	94.0488
0.897066	685.548	83.9008
0.868728	663.892	77.299
0.853911	652.569	74.7136
0.826653	631.738	70.6286
0.798859	610.497	67.4308
0.750728	573.715	62.8485
0.699029	534.206	58.9009
0.650263	496.939	55.7026
0.599751	458.337	52.6713
0.549362	419.829	49.8841
0.500111	382.19	47.1371
0.448238	342.549	30.1014
0.392675	300.087	26.7924
0.337997	258.302	24.8103
0.303693	232.085	23.6486
0.249542	190.703	21.8964
0.199696	152.61	20.3232
0.139905	106.917	18.4115