File: fig_2_xrd_bet/BET/Ni90Fe10_CeO2.txt
Relative Pressure (p/p°)	Absolute Pressure (mmHg)	Quantity Adsorbed (cm³/g STP)
0.0108457	8.33972	3.79617
0.0322433	24.7926	4.45572
0.0668446	51.3977	5.01854
0.079849	61.3955	5.18894
0.100222	77.0596	5.42277
0.12032	92.5116	5.63673
0.140226	107.814	5.84628
0.160235	123.197	6.03677
0.180228	138.567	6.22086
0.200344	154.03	6.40775
0.249949	192.165	6.85128
0.300904	231.337	7.30387
0.351045	269.88	7.7341
0.400898	308.203	8.17918
0.451169	346.842	8.63856
0.501286	385.365	9.10935
0.551331	423.828	9.62824
0.601601	462.462	10.1918
0.651555	500.857	10.8198
0.701623	539.332	11.5668
0.751605	577.74	12.5054
0.801517	616.092	13.778
0.821858	631.713	14.4473
0.851477	654.464	15.6375
0.875975	673.278	16.9533
0.901079	692.549	18.7281
0.925482	711.272	21.2011
0.948659	729.051	25.3298
0.973333	747.962	32.5439
0.981189	753.948	37.5583
0.990299	760.895	45.0289
0.995166	764.582	51.429
0.983734	755.773	48.4331
0.976969	750.542	44.6659
0.970976	745.894	41.1641
0.95679	734.947	33.968
0.922457	708.509	23.9385
0.896499	688.532	20.3055
0.867639	666.344	17.6902
0.853911	655.786	16.8003
0.826635	634.824	15.3973
0.799457	613.952	14.335
0.749025	575.222	12.9174
0.699459	537.158	11.8967
0.649456	498.757	11.0802
0.599239	460.192	10.3971
0.549309	421.848	9.8006
0.499468	383.572	9.2406
0.450068	345.636	8.55856
0.398188	305.793	8.03536
0.350055	268.83	7.58526
0.299217	229.787	7.1211
0.24945	191.568	6.65908
0.199567	153.26	6.19442
0.139713	107.294	5.60755