File: fig_2_xrd_bet/XRD/Ni90Fe10_Ni_BB_Dtex.xy
5.00000 37889.000
5.29000 37046.000
5.58000 36454.000
5.87000 35668.000
6.16000 34873.000
6.45000 34314.000
6.74000 34016.000
7.03000 33323.000
7.32000 33096.000
7.61000 32437.000
7.90000 31926.000
8.19000 31564.000
8.48000 31121.000
8.77000 30651.000
9.06000 30211.000
9.35000 29574.000
9.64000 29138.000
9.93000 28513.000
10.22000 28089.000
10.51000 27570.000
10.80000 27119.000
11.09000 26737.000
11.38000 26341.000
11.67000 25907.000
11.96000 25646.000
12.25000 25305.000
12.54000 25121.000
12.83000 24428.000
13.12000 24234.000
13.41000 23966.000
13.70000 23644.000
13.99000 23767.000
14.28000 23340.000
14.57000 23017.000
14.86000 23035.000
15.15000 22570.000
15.44000 22559.000
15.73000 22531.000
16.02000 22082.000
16.31000 21912.000
16.60000 21964.000
16.89000 21738.000
17.18000 21668.000
17.47000 21799.000
17.76000 21558.000
18.05000 21673.000
18.34000 21664.000
18.63000 21766.000
18.92000 21790.000
19.21000 21468.000
19.50000 21624.000
19.79000 21482.000
20.08000 21557.000
20.37000 21653.000
20.66000 21771.000
20.95000 21292.000
21.24000 21474.000
21.53000 21490.000
21.82000 21746.000
22.11000 22016.000
22.40000 21764.000
22.69000 22163.000
22.98000 21966.000
23.27000 22103.000
23.56000 22107.000
23.85000 22286.000
24.14000 22323.000
24.43000 22327.000
24.72000 22293.000
25.01000 22883.000
25.30000 22852.000
25.59000 22971.000
25.88000 23283.000
26.17000 23237.000
26.46000 23406.000
26.75000 23567.000
27.04000 23792.000
27.33000 23615.000
27.62000 24018.000
27.91000 23841.000
28.20000 24200.000
28.49000 24307.000
28.78000 24385.000
29.07000 24586.000
29.36000 24838.000
29.65000 24812.000
29.94000 25134.000
30.23000 25130.000
30.52000 25383.000
30.81000 25412.000
31.10000 26022.000
31.39000 26749.000
31.68000 25919.000
31.97000 26311.000
32.26000 26352.000
32.55000 26870.000
32.84000 27349.000
33.13000 28174.000
33.42000 28730.000
33.71000 29457.000
34.00000 30368.000
34.29000 30736.000
34.58000 30512.000
34.87000 30835.000
35.16000 30496.000
35.45000 30157.000
35.74000 29958.000
36.03000 29717.000
36.32000 29469.000
36.61000 29850.000
36.90000 29287.000
37.19000 29250.000
37.48000 28980.000
37.77000 28821.000
38.06000 28544.000
38.35000 28837.000
38.64000 28662.000
38.93000 28617.000
39.22000 28583.000
39.51000 28620.000
39.80000 28491.000
40.09000 28166.000
40.38000 28265.000
40.67000 28465.000
40.96000 28364.000
41.25000 27906.000
41.54000 28041.000
41.83000 27708.000
42.12000 27964.000
42.41000 28162.000
42.70000 27792.000
42.99000 27774.000
43.28000 27953.000
43.57000 27702.000
43.86000 27637.000
44.15000 27903.000
44.44000 27829.000
44.73000 27862.000
45.02000 27789.000
45.31000 27854.000
45.60000 27258.000
45.89000 27396.000
46.18000 27263.000
46.47000 26973.000
46.76000 26877.000
47.05000 26751.000
47.34000 26821.000
47.63000 26426.000
47.92000 26635.000
48.21000 26204.000
48.50000 26150.000
48.79000 25909.000
49.08000 25616.000
49.37000 25578.000
49.66000 25271.000
49.95000 25295.000
50.24000 25129.000
50.53000 25225.000
50.82000 24726.000
51.11000 24573.000
51.40000 24170.000
51.69000 24320.000
51.98000 24182.000
52.27000 24044.000
52.56000 24160.000
52.85000 23744.000
53.14000 23857.000
53.43000 24046.000
53.72000 24071.000
54.01000 23677.000
54.30000 23536.000
54.59000 23357.000
54.88000 23590.000
55.17000 23093.000
55.46000 23332.000
55.75000 23335.000
56.04000 23179.000
56.33000 23267.000
56.62000 22910.000
56.91000 23216.000
57.20000 23135.000
57.49000 23361.000
57.78000 23112.000
58.07000 23277.000
58.36000 23455.000
58.65000 23470.000
58.94000 23387.000
59.23000 23763.000
59.52000 23997.000
59.81000 24485.000
60.10000 24505.000
60.39000 25145.000
60.68000 24911.000
60.97000 24675.000
61.26000 24745.000
61.55000 24147.000
61.84000 23828.000
62.13000 23637.000
62.42000 23539.000
62.71000 23140.000
63.00000 23080.000
63.29000 22712.000
63.58000 22688.000
63.87000 22520.000
64.16000 22337.000
64.45000 22266.000
64.74000 22149.000
65.03000 21944.000
65.32000 22001.000
65.61000 21827.000
65.90000 22044.000
66.19000 21651.000
66.48000 21492.000
66.77000 21569.000
67.06000 21568.000
67.35000 21306.000
67.64000 21421.000
67.93000 21538.000
68.22000 21389.000
68.51000 21467.000
68.80000 21092.000
69.09000 21183.000
69.38000 21160.000
69.67000 21186.000
69.96000 21113.000
70.25000 21070.000
70.54000 21249.000
70.83000 21120.000
71.12000 21195.000
71.41000 21480.000
71.70000 21206.000
71.99000 21003.000
72.28000 20998.000
72.57000 21234.000
72.86000 20985.000
73.15000 20790.000
73.44000 20728.000
73.73000 20704.000
74.02000 20807.000
74.31000 20866.000
74.60000 20656.000
74.89000 20430.000
75.18000 20649.000
75.47000 20491.000
75.76000 20305.000
76.05000 20513.000
76.34000 20330.000
76.63000 20147.000
76.92000 20138.000
77.21000 20341.000
77.50000 20020.000
77.79000 20223.000
78.08000 20223.000
78.37000 20059.000
78.66000 20269.000
78.95000 20178.000
79.24000 20136.000
79.53000 20195.000
79.82000 20014.000
80.11000 20000.000
80.40000 19878.000
80.69000 19632.000
80.98000 19730.000
81.27000 19614.000
81.56000 19843.000
81.85000 19738.000
82.14000 19603.000
82.43000 19626.000
82.72000 19678.000
83.01000 19966.000
83.30000 19570.000
83.59000 19358.000
83.88000 19574.000
84.17000 19536.000
84.46000 19601.000
84.75000 19313.000
85.04000 19523.000
85.33000 19188.000
85.62000 19246.000
85.91000 19231.000
86.20000 19174.000
86.49000 19151.000
86.78000 19377.000
87.07000 19156.000
87.36000 19079.000
87.65000 19132.000
87.94000 18775.000
88.23000 19047.000
88.52000 18725.000
88.81000 18842.000
89.10000 18834.000
89.39000 18716.000
89.68000 18818.000
89.97000 18823.000
89.98000 18854.000