File: fig_2_xrd_bet/XRD/Ni90Fe10_CeO2_BB_Dtex.xy
10.00000 23223.000
10.24000 23077.000
10.48000 22228.000
10.72000 21872.000
10.96000 21514.000
11.20000 21192.000
11.44000 20339.000
11.68000 20094.000
11.92000 19561.000
12.16000 19240.000
12.40000 18901.000
12.64000 18410.000
12.88000 18417.000
13.12000 18178.000
13.36000 18036.000
13.60000 17740.000
13.84000 17240.000
14.08000 17039.000
14.32000 17032.000
14.56000 16739.000
14.80000 16542.000
15.04000 16255.000
15.28000 16174.000
15.52000 16043.000
15.76000 15730.000
16.00000 15789.000
16.24000 15487.000
16.48000 15214.000
16.72000 15129.000
16.96000 15294.000
17.20000 15074.000
17.44000 15091.000
17.68000 15140.000
17.92000 14783.000
18.16000 14985.000
18.40000 14786.000
18.64000 14716.000
18.88000 14641.000
19.12000 14639.000
19.36000 14664.000
19.60000 14935.000
19.84000 14854.000
20.08000 14713.000
20.32000 14751.000
20.56000 14576.000
20.80000 14684.000
21.04000 14364.000
21.28000 14349.000
21.52000 14506.000
21.76000 14477.000
22.00000 14513.000
22.24000 14575.000
22.48000 14284.000
22.72000 14234.000
22.96000 14550.000
23.20000 14463.000
23.44000 14343.000
23.68000 14407.000
23.92000 14351.000
24.16000 14600.000
24.40000 14453.000
24.64000 14550.000
24.88000 14690.000
25.12000 14604.000
25.36000 14612.000
25.60000 14731.000
25.84000 14844.000
26.08000 14933.000
26.32000 15161.000
26.56000 15323.000
26.80000 15687.000
27.04000 15883.000
27.28000 16600.000
27.52000 17192.000
27.76000 18144.000
28.00000 19567.000
28.24000 20892.000
28.48000 21546.000
28.72000 20929.000
28.96000 20026.000
29.20000 18738.000
29.44000 17749.000
29.68000 17151.000
29.92000 16608.000
30.16000 16260.000
30.40000 15900.000
30.64000 15744.000
30.88000 15806.000
31.12000 15772.000
31.36000 15820.000
31.60000 15996.000
31.84000 16058.000
32.08000 16189.000
32.32000 16829.000
32.56000 17316.000
32.80000 18080.000
33.04000 18658.000
33.28000 19295.000
33.52000 19694.000
33.76000 19968.000
34.00000 20018.000
34.24000 20077.000
34.48000 20015.000
34.72000 19595.000
34.96000 19000.000
35.20000 18974.000
35.44000 18859.000
35.68000 18542.000
35.92000 18422.000
36.16000 18084.000
36.40000 18115.000
36.64000 17990.000
36.88000 17580.000
37.12000 17801.000
37.36000 17639.000
37.60000 17696.000
37.84000 17469.000
38.08000 17401.000
38.32000 17344.000
38.56000 17139.000
38.80000 17195.000
39.04000 17093.000
39.28000 16965.000
39.52000 16999.000
39.76000 16811.000
40.00000 16836.000
40.24000 16749.000
40.48000 16648.000
40.72000 16676.000
40.96000 16553.000
41.20000 16524.000
41.44000 16352.000
41.68000 16489.000
41.92000 16565.000
42.16000 16513.000
42.40000 16334.000
42.64000 16235.000
42.88000 16277.000
43.12000 16391.000
43.36000 16214.000
43.60000 16137.000
43.84000 16361.000
44.08000 16239.000
44.32000 16153.000
44.56000 16304.000
44.80000 16019.000
45.04000 16315.000
45.28000 16403.000
45.52000 16518.000
45.76000 16589.000
46.00000 16693.000
46.24000 16939.000
46.48000 17551.000
46.72000 17790.000
46.96000 18520.000
47.20000 18970.000
47.44000 19176.000
47.68000 18831.000
47.92000 18155.000
48.16000 17592.000
48.40000 16831.000
48.64000 16626.000
48.88000 16251.000
49.12000 16003.000
49.36000 15739.000
49.60000 15617.000
49.84000 15568.000
50.08000 15239.000
50.32000 15376.000
50.56000 15162.000
50.80000 15183.000
51.04000 14960.000
51.28000 14966.000
51.52000 14895.000
51.76000 15003.000
52.00000 14786.000
52.24000 14893.000
52.48000 14885.000
52.72000 14761.000
52.96000 14794.000
53.20000 14875.000
53.44000 14675.000
53.68000 15099.000
53.92000 14783.000
54.16000 14769.000
54.40000 14905.000
54.64000 15112.000
54.88000 15199.000
55.12000 15279.000
55.36000 15876.000
55.60000 16330.000
55.84000 16416.000
56.08000 16827.000
56.32000 16830.000
56.56000 16705.000
56.80000 16514.000
57.04000 15988.000
57.28000 15678.000
57.52000 15484.000
57.76000 15250.000
58.00000 15337.000
58.24000 15209.000
58.48000 15269.000
58.72000 15604.000
58.96000 15588.000
59.20000 15845.000
59.44000 16084.000
59.68000 16412.000
59.92000 16506.000
60.16000 16665.000
60.40000 16826.000
60.64000 16605.000
60.88000 16465.000
61.12000 16393.000
61.36000 15993.000
61.60000 15692.000
61.84000 15334.000
62.08000 15120.000
62.32000 14944.000
62.56000 14744.000
62.80000 14500.000
63.04000 14394.000
63.28000 14253.000
63.52000 14280.000
63.76000 14078.000
64.00000 14185.000
64.24000 14103.000
64.48000 13967.000
64.72000 13894.000
64.96000 13762.000
65.20000 13782.000
65.44000 13894.000
65.68000 13689.000
65.92000 13555.000
66.16000 13625.000
66.40000 13643.000
66.64000 13564.000
66.88000 13738.000
67.12000 13502.000
67.36000 13627.000
67.60000 13415.000
67.84000 13471.000
68.08000 13364.000
68.32000 13392.000
68.56000 13681.000
68.80000 13515.000
69.04000 13659.000
69.28000 13694.000
69.52000 13870.000
69.76000 13824.000
70.00000 13800.000
70.24000 13691.000
70.48000 13723.000
70.72000 13576.000
70.96000 13714.000
71.20000 13682.000
71.44000 13491.000
71.68000 13533.000
71.92000 13609.000
72.16000 13595.000
72.40000 13305.000
72.64000 13532.000
72.88000 13452.000
73.12000 13235.000
73.36000 13293.000
73.60000 13424.000
73.84000 13312.000
74.08000 13212.000
74.32000 13328.000
74.56000 13386.000
74.80000 13233.000
75.04000 13338.000
75.28000 13381.000
75.52000 13412.000
75.76000 13489.000
76.00000 13727.000
76.24000 13634.000
76.48000 13674.000
76.72000 13762.000
76.96000 13740.000
77.20000 13514.000
77.44000 13527.000
77.68000 13411.000
77.92000 13443.000
78.16000 13697.000
78.40000 13254.000
78.64000 13581.000
78.88000 13285.000
79.12000 13200.000
79.36000 13488.000
79.60000 13226.000
79.84000 13203.000
79.99000 12987.000