File: fig_2_xrd_bet/XRD/Ni90Fe10_TiO2_BB_Dtex.xy
10.00000 23349.000
10.24000 22974.000
10.48000 22761.000
10.72000 22140.000
10.96000 21736.000
11.20000 21208.000
11.44000 20556.000
11.68000 20465.000
11.92000 19834.000
12.16000 19714.000
12.40000 19422.000
12.64000 19064.000
12.88000 18545.000
13.12000 18522.000
13.36000 18047.000
13.60000 17805.000
13.84000 17779.000
14.08000 17643.000
14.32000 17521.000
14.56000 17133.000
14.80000 17183.000
15.04000 16821.000
15.28000 16968.000
15.52000 16868.000
15.76000 16745.000
16.00000 16608.000
16.24000 16363.000
16.48000 16473.000
16.72000 16469.000
16.96000 16426.000
17.20000 16295.000
17.44000 16278.000
17.68000 16240.000
17.92000 16231.000
18.16000 16244.000
18.40000 16290.000
18.64000 16395.000
18.88000 16291.000
19.12000 16411.000
19.36000 16479.000
19.60000 16372.000
19.84000 16369.000
20.08000 16205.000
20.32000 16344.000
20.56000 16124.000
20.80000 16356.000
21.04000 16249.000
21.28000 16228.000
21.52000 16135.000
21.76000 16121.000
22.00000 16084.000
22.24000 15983.000
22.48000 16349.000
22.72000 15864.000
22.96000 16215.000
23.20000 15956.000
23.44000 16024.000
23.68000 15955.000
23.92000 16006.000
24.16000 15955.000
24.40000 15905.000
24.64000 16017.000
24.88000 15885.000
25.12000 16095.000
25.36000 15969.000
25.60000 16040.000
25.84000 16121.000
26.08000 16297.000
26.32000 16159.000
26.56000 16234.000
26.80000 16349.000
27.04000 17273.000
27.28000 19286.000
27.52000 19430.000
27.76000 17239.000
28.00000 16460.000
28.24000 16481.000
28.48000 16243.000
28.72000 16240.000
28.96000 16093.000
29.20000 15997.000
29.44000 16075.000
29.68000 15984.000
29.92000 16048.000
30.16000 16233.000
30.40000 15878.000
30.64000 16172.000
30.88000 15822.000
31.12000 16015.000
31.36000 16005.000
31.60000 16073.000
31.84000 16323.000
32.08000 16273.000
32.32000 16546.000
32.56000 16856.000
32.80000 17228.000
33.04000 17751.000
33.28000 18346.000
33.52000 19498.000
33.76000 20138.000
34.00000 20716.000
34.24000 21107.000
34.48000 20901.000
34.72000 20885.000
34.96000 20880.000
35.20000 20631.000
35.44000 20435.000
35.68000 20415.000
35.92000 20801.000
36.16000 22037.000
36.40000 20453.000
36.64000 19590.000
36.88000 19305.000
37.12000 19381.000
37.36000 19225.000
37.60000 19088.000
37.84000 18784.000
38.08000 18989.000
38.32000 18715.000
38.56000 18561.000
38.80000 18799.000
39.04000 18558.000
39.28000 18339.000
39.52000 18434.000
39.76000 18296.000
40.00000 18044.000
40.24000 17947.000
40.48000 17947.000
40.72000 17858.000
40.96000 17982.000
41.20000 18923.000
41.44000 18785.000
41.68000 17704.000
41.92000 17595.000
42.16000 17643.000
42.40000 17449.000
42.64000 17291.000
42.88000 17223.000
43.12000 17245.000
43.36000 17226.000
43.60000 17223.000
43.84000 17525.000
44.08000 17360.000
44.32000 17307.000
44.56000 16928.000
44.80000 16952.000
45.04000 17108.000
45.28000 16842.000
45.52000 17004.000
45.76000 16715.000
46.00000 16676.000
46.24000 16782.000
46.48000 16469.000
46.72000 16734.000
46.96000 16203.000
47.20000 16494.000
47.44000 16299.000
47.68000 16172.000
47.92000 16203.000
48.16000 16143.000
48.40000 16132.000
48.64000 16022.000
48.88000 15984.000
49.12000 16095.000
49.36000 15922.000
49.60000 15850.000
49.84000 15603.000
50.08000 15762.000
50.32000 15787.000
50.56000 15718.000
50.80000 15603.000
51.04000 15509.000
51.28000 15475.000
51.52000 15547.000
51.76000 15179.000
52.00000 15402.000
52.24000 15248.000
52.48000 15301.000
52.72000 15236.000
52.96000 15323.000
53.20000 15114.000
53.44000 15200.000
53.68000 15557.000
53.92000 15750.000
54.16000 16586.000
54.40000 17189.000
54.64000 16303.000
54.88000 15556.000
55.12000 15231.000
55.36000 14947.000
55.60000 15180.000
55.84000 15085.000
56.08000 15251.000
56.32000 15148.000
56.56000 15554.000
56.80000 15317.000
57.04000 15024.000
57.28000 14760.000
57.52000 14912.000
57.76000 14983.000
58.00000 15008.000
58.24000 15015.000
58.48000 14913.000
58.72000 15308.000
58.96000 15614.000
59.20000 15763.000
59.44000 15844.000
59.68000 16274.000
59.92000 16651.000
60.16000 16802.000
60.40000 17020.000
60.64000 17159.000
60.88000 17045.000
61.12000 16761.000
61.36000 16435.000
61.60000 16245.000
61.84000 15934.000
62.08000 15653.000
62.32000 15499.000
62.56000 15271.000
62.80000 15207.000
63.04000 15413.000
63.28000 15113.000
63.52000 14833.000
63.76000 14773.000
64.00000 14480.000
64.24000 14599.000
64.48000 14414.000
64.72000 14273.000
64.96000 14142.000
65.20000 14218.000
65.44000 13905.000
65.68000 14030.000
65.92000 13913.000
66.16000 13964.000
66.40000 13785.000
66.64000 13915.000
66.88000 13604.000
67.12000 13600.000
67.36000 13623.000
67.60000 13657.000
67.84000 13648.000
68.08000 13551.000
68.32000 13630.000
68.56000 13898.000
68.80000 13684.000
69.04000 14006.000
69.28000 13781.000
69.52000 13828.000
69.76000 13912.000
70.00000 13630.000
70.24000 13649.000
70.48000 13724.000
70.72000 13893.000
70.96000 13696.000
71.20000 13703.000
71.44000 13574.000
71.68000 13641.000
71.92000 13622.000
72.16000 13636.000
72.40000 13377.000
72.64000 13423.000
72.88000 13420.000
73.12000 13286.000
73.36000 13440.000
73.60000 13349.000
73.84000 13357.000
74.08000 13140.000
74.32000 13326.000
74.56000 13172.000
74.80000 13009.000
75.04000 13032.000
75.28000 13057.000
75.52000 12924.000
75.76000 12921.000
76.00000 12943.000
76.24000 12934.000
76.48000 13022.000
76.72000 13004.000
76.96000 12902.000
77.20000 12653.000
77.44000 12591.000
77.68000 12721.000
77.92000 12759.000
78.16000 12646.000
78.40000 12576.000
78.64000 12632.000
78.88000 12699.000
79.12000 12643.000
79.36000 12454.000
79.60000 12398.000
79.84000 12269.000
79.99000 12598.000