File: fig_4_nife_ceo2/Activity_1_CV/Fe100_Activity_1_CV_1_02_CV_C01.txt
Ewe/V	<I>/mA	cycle number
1,9416776E-004	-4,518190920352936E-001	1,000000000000000E+000
1,2974231E-002	-8,044890775157826E-003	1,000000000000000E+000
2,6123805E-002	-4,047801331714618E-003	1,000000000000000E+000
3,9170388E-002	-2,583370236000825E-003	1,000000000000000E+000
5,2196786E-002	-1,802744879014453E-003	1,000000000000000E+000
6,5139316E-002	-1,299280676977681E-003	1,000000000000000E+000
7,8148730E-002	-9,548675470321937E-004	1,000000000000000E+000
9,1222920E-002	-7,050662896954420E-004	1,000000000000000E+000
1,0421004E-001	-5,093805518512073E-004	1,000000000000000E+000
1,1719595E-001	-3,518791176083686E-004	1,000000000000000E+000
1,3015559E-001	-2,294224278514218E-004	1,000000000000000E+000
1,4320537E-001	-1,250997466778292E-004	1,000000000000000E+000
1,5617231E-001	-4,415001953806435E-005	1,000000000000000E+000
1,6918704E-001	2,714431201385800E-005	1,000000000000000E+000
1,8214124E-001	6,979402725471392E-005	1,000000000000000E+000
1,9517297E-001	1,051803296598778E-004	1,000000000000000E+000
2,0822378E-001	1,476702715223351E-004	1,000000000000000E+000
2,2113870E-001	1,746539239431146E-004	1,000000000000000E+000
2,3416509E-001	2,093926671741684E-004	1,000000000000000E+000
2,4714054E-001	2,210658094296877E-004	1,000000000000000E+000
2,6016590E-001	2,467549353155333E-004	1,000000000000000E+000
2,7317739E-001	2,634163564665662E-004	1,000000000000000E+000
2,8614831E-001	2,860014302151458E-004	1,000000000000000E+000
2,9913571E-001	3,152427356771829E-004	1,000000000000000E+000
3,1219330E-001	3,441547351702365E-004	1,000000000000000E+000
3,2518005E-001	3,715409719835918E-004	1,000000000000000E+000
3,3813214E-001	4,017702710439018E-004	1,000000000000000E+000
3,5115430E-001	4,396533842485374E-004	1,000000000000000E+000
3,6411807E-001	4,811216501929299E-004	1,000000000000000E+000
3,7714446E-001	5,151852185829274E-004	1,000000000000000E+000
3,9012408E-001	5,614489106399532E-004	1,000000000000000E+000
4,0311867E-001	6,188682697677006E-004	1,000000000000000E+000
4,1615462E-001	6,767489277635806E-004	1,000000000000000E+000
4,2911944E-001	7,470142861790985E-004	1,000000000000000E+000
4,4218308E-001	8,604051978767530E-004	1,000000000000000E+000
4,5512611E-001	1,045329255607881E-003	1,000000000000000E+000
4,6817955E-001	1,359905738172938E-003	1,000000000000000E+000
4,8116577E-001	1,987398820865375E-003	1,000000000000000E+000
4,9414107E-001	3,815232359610479E-003	1,000000000000000E+000
5,0712287E-001	9,713593112381902E-003	1,000000000000000E+000
5,2027351E-001	2,014125273652717E-002	1,000000000000000E+000
5,3326386E-001	3,031571711996417E-002	1,000000000000000E+000
5,4625732E-001	3,949612321816770E-002	1,000000000000000E+000
5,5927098E-001	5,562591182369987E-002	1,000000000000000E+000
5,7227510E-001	9,427291537685689E-002	1,000000000000000E+000
5,8537793E-001	1,621201828812708E-001	1,000000000000000E+000
5,9838313E-001	2,613474113545695E-001	1,000000000000000E+000
6,1134475E-001	3,941310281842068E-001	1,000000000000000E+000
6,2436491E-001	5,642890325779296E-001	1,000000000000000E+000
6,3743156E-001	7,741994170721211E-001	1,000000000000000E+000
6,5032226E-001	1,017963278103402E+000	1,000000000000000E+000
6,6349500E-001	1,302080037929713E+000	1,000000000000000E+000
6,7647040E-001	1,612724916633569E+000	1,000000000000000E+000
6,8940651E-001	1,952062622371580E+000	1,000000000000000E+000
7,0239151E-001	2,299834175647796E+000	1,000000000000000E+000
7,1546566E-001	2,690926342594388E+000	1,000000000000000E+000
7,2839648E-001	3,091220468417866E+000	1,000000000000000E+000
7,4144310E-001	3,494925322209617E+000	1,000000000000000E+000
7,5439727E-001	3,914163992653627E+000	1,000000000000000E+000
7,6740783E-001	4,352383679847584E+000	1,000000000000000E+000
7,8040022E-001	4,808473131587707E+000	1,000000000000000E+000
7,9346877E-001	5,261159533456457E+000	1,000000000000000E+000
8,0644238E-001	5,709646383752343E+000	1,000000000000000E+000
8,1945574E-001	6,185779989080991E+000	1,000000000000000E+000
8,3243996E-001	6,652184788872603E+000	1,000000000000000E+000
8,4539950E-001	7,132665873452368E+000	1,000000000000000E+000
8,5842800E-001	7,608323357543213E+000	1,000000000000000E+000
8,7144601E-001	8,075211283233415E+000	1,000000000000000E+000
8,8440341E-001	8,553506744016047E+000	1,000000000000000E+000
8,9741600E-001	9,044801066792246E+000	1,000000000000000E+000
9,1041261E-001	9,535255310554362E+000	1,000000000000000E+000
9,2346454E-001	1,000302422141276E+001	1,000000000000000E+000
9,3639529E-001	1,049323341878903E+001	1,000000000000000E+000
9,4959372E-001	1,098607547050700E+001	1,000000000000000E+000
9,6261603E-001	1,146245103520332E+001	1,000000000000000E+000
9,7563279E-001	1,192908620962749E+001	1,000000000000000E+000
9,8865187E-001	1,241305184486393E+001	1,000000000000000E+000
9,9924439E-001	1,277421897406475E+001	1,000000000000000E+000
9,8630828E-001	1,208012153948241E+001	1,000000000000000E+000
9,7327232E-001	1,144251139140995E+001	1,000000000000000E+000
9,6032035E-001	1,085126947457823E+001	1,000000000000000E+000
9,4729495E-001	1,028387422227803E+001	1,000000000000000E+000
9,3430889E-001	9,729471456572043E+000	1,000000000000000E+000
9,2126131E-001	9,193441281470683E+000	1,000000000000000E+000
9,0831554E-001	8,676635035649468E+000	1,000000000000000E+000
8,9531362E-001	8,190154819283933E+000	1,000000000000000E+000
8,8221186E-001	7,669164420458202E+000	1,000000000000000E+000
8,6926609E-001	7,219093172187996E+000	1,000000000000000E+000
8,5631931E-001	6,733480632643051E+000	1,000000000000000E+000
8,4330672E-001	6,265070162798011E+000	1,000000000000000E+000
8,3034503E-001	5,823943695040796E+000	1,000000000000000E+000
8,1730270E-001	5,399051145800371E+000	1,000000000000000E+000
8,0430818E-001	4,963904230299988E+000	1,000000000000000E+000
7,9133701E-001	4,553351271382255E+000	1,000000000000000E+000
7,7810782E-001	4,146332587413227E+000	1,000000000000000E+000
7,6509625E-001	3,753066900534677E+000	1,000000000000000E+000
7,5220591E-001	3,366086560945604E+000	1,000000000000000E+000
7,3912412E-001	2,993609100614009E+000	1,000000000000000E+000
7,2610754E-001	2,646070719432666E+000	1,000000000000000E+000
7,1313930E-001	2,302099741691237E+000	1,000000000000000E+000
7,0012248E-001	1,982072646334728E+000	1,000000000000000E+000
6,8711299E-001	1,671511398269342E+000	1,000000000000000E+000
6,7412484E-001	1,389181737067883E+000	1,000000000000000E+000
6,6114944E-001	1,128752238237535E+000	1,000000000000000E+000
6,4812404E-001	8,942136134014653E-001	1,000000000000000E+000
6,3514966E-001	6,835474895055751E-001	1,000000000000000E+000
6,2209994E-001	5,034257200654269E-001	1,000000000000000E+000
6,0893548E-001	3,522914482762118E-001	1,000000000000000E+000
5,9588462E-001	2,342582329613510E-001	1,000000000000000E+000
5,8295918E-001	1,442424534395890E-001	1,000000000000000E+000
5,6992847E-001	8,199314165822413E-002	1,000000000000000E+000
5,5675972E-001	4,149629047579739E-002	1,000000000000000E+000
5,4371417E-001	1,880355783349624E-002	1,000000000000000E+000
5,3068352E-001	7,278924629059491E-003	1,000000000000000E+000
5,1758605E-001	1,772264457241626E-003	1,000000000000000E+000
5,0452775E-001	-5,521208689116281E-004	1,000000000000000E+000
4,9161077E-001	-1,752957954064731E-003	1,000000000000000E+000
4,7851419E-001	-2,728002172432945E-003	1,000000000000000E+000
4,6551120E-001	-4,247837625969239E-003	1,000000000000000E+000
4,5259520E-001	-8,869533227820511E-003	1,000000000000000E+000
4,3948114E-001	-1,844852037512838E-002	1,000000000000000E+000
4,2641714E-001	-2,075634199569998E-002	1,000000000000000E+000
4,1343918E-001	-1,038104752245753E-002	1,000000000000000E+000
4,0043971E-001	-5,300346167392223E-003	1,000000000000000E+000
3,8723597E-001	-3,487725846037515E-003	1,000000000000000E+000
3,7420213E-001	-2,599728804551824E-003	1,000000000000000E+000
3,6123309E-001	-2,116448185590092E-003	1,000000000000000E+000
3,4825447E-001	-1,827008693596871E-003	1,000000000000000E+000
3,3522379E-001	-1,634077800079056E-003	1,000000000000000E+000
3,2225582E-001	-1,479876176910158E-003	1,000000000000000E+000
3,0925700E-001	-1,365512765840661E-003	1,000000000000000E+000
2,9623166E-001	-1,278602013905856E-003	1,000000000000000E+000
2,8325728E-001	-1,199343011222125E-003	1,000000000000000E+000
2,7027261E-001	-1,155939205627479E-003	1,000000000000000E+000
2,5719386E-001	-1,111139228846706E-003	1,000000000000000E+000
2,4427640E-001	-1,077797610290183E-003	1,000000000000000E+000
2,3120898E-001	-1,050123938609044E-003	1,000000000000000E+000
2,1823779E-001	-1,031901937191531E-003	1,000000000000000E+000
2,0525813E-001	-1,015741723478924E-003	1,000000000000000E+000
1,9229543E-001	-1,007064722331948E-003	1,000000000000000E+000
1,7922972E-001	-1,009629809605417E-003	1,000000000000000E+000
1,6626172E-001	-1,012113749394029E-003	1,000000000000000E+000
1,5323214E-001	-1,026983116500964E-003	1,000000000000000E+000
1,4023228E-001	-1,032433674576446E-003	1,000000000000000E+000
1,2723240E-001	-1,039013171027290E-003	1,000000000000000E+000
1,1425804E-001	-1,034186580004220E-003	1,000000000000000E+000
1,0124437E-001	-1,033225703941666E-003	1,000000000000000E+000
8,8237084E-002	-1,034378927846663E-003	1,000000000000000E+000
7,5256333E-002	-1,040868452971866E-003	1,000000000000000E+000
6,2285144E-002	-1,038847691811427E-003	1,000000000000000E+000
4,9245995E-002	-1,045005427842874E-003	1,000000000000000E+000
3,6236577E-002	-1,044168935933853E-003	1,000000000000000E+000
2,3270698E-002	-1,036400216251592E-003	1,000000000000000E+000
1,0266591E-002	-1,034216967076017E-003	1,000000000000000E+000
-7,3410905E-005	-1,049884698837630E-003	1,000000000000000E+000