File: fig_4_nife_ceo2/Activity_1_CV/Ni10Fe90_Activity_1_CV1_02_CV_C01.txt
Ewe/V	<I>/mA	cycle number
4,0235359E-004	-4,740545749664307E-001	1,000000000000000E+000
1,2957311E-002	-8,888195459601581E-003	1,000000000000000E+000
2,6056452E-002	-4,484393125428466E-003	1,000000000000000E+000
3,9104622E-002	-2,869447731538875E-003	1,000000000000000E+000
5,2081123E-002	-1,984577672895924E-003	1,000000000000000E+000
6,5037444E-002	-1,418457668222628E-003	1,000000000000000E+000
7,8065977E-002	-1,034249072857691E-003	1,000000000000000E+000
9,1121048E-002	-7,565620839274749E-004	1,000000000000000E+000
1,0407420E-001	-5,527628910012537E-004	1,000000000000000E+000
1,1711227E-001	-3,960196009548753E-004	1,000000000000000E+000
1,3009089E-001	-2,927022303811500E-004	1,000000000000000E+000
1,4303660E-001	-2,215431615011005E-004	1,000000000000000E+000
1,5604179E-001	-1,559767231938698E-004	1,000000000000000E+000
1,6910535E-001	-1,070248457941164E-004	1,000000000000000E+000
1,8203513E-001	-5,284872577622957E-005	1,000000000000000E+000
1,9506578E-001	-4,562213092704806E-006	1,000000000000000E+000
2,0808366E-001	5,377381600719235E-005	1,000000000000000E+000
2,2110264E-001	1,165775713576353E-004	1,000000000000000E+000
2,3404518E-001	1,750907568956550E-004	1,000000000000000E+000
2,4700575E-001	2,377849526085697E-004	1,000000000000000E+000
2,6005232E-001	2,913484676780290E-004	1,000000000000000E+000
2,7305752E-001	3,411973973455129E-004	1,000000000000000E+000
2,8609025E-001	3,819347299902241E-004	1,000000000000000E+000
2,9908481E-001	4,105347783182386E-004	1,000000000000000E+000
3,1208685E-001	4,216161505032796E-004	1,000000000000000E+000
3,2504421E-001	4,143187749240697E-004	1,000000000000000E+000
3,3803344E-001	4,146489192611031E-004	1,000000000000000E+000
3,5106304E-001	4,202555368807617E-004	1,000000000000000E+000
3,6402568E-001	4,310134278560588E-004	1,000000000000000E+000
3,7696826E-001	4,570231782949226E-004	1,000000000000000E+000
3,9010295E-001	4,896235956274291E-004	1,000000000000000E+000
4,0299764E-001	5,385954878140862E-004	1,000000000000000E+000
4,1603154E-001	6,012284613622666E-004	1,000000000000000E+000
4,2904419E-001	7,014777837703896E-004	1,000000000000000E+000
4,4196117E-001	8,997189314066314E-004	1,000000000000000E+000
4,5498866E-001	1,201243499163123E-003	1,000000000000000E+000
4,6813506E-001	1,660018393196627E-003	1,000000000000000E+000
4,8103511E-001	2,690986017114486E-003	1,000000000000000E+000
4,9401584E-001	5,603993993022596E-003	1,000000000000000E+000
5,0708365E-001	1,393303321846051E-002	1,000000000000000E+000
5,2010262E-001	2,485413275143795E-002	1,000000000000000E+000
5,3314281E-001	3,021440234314038E-002	1,000000000000000E+000
5,4610121E-001	3,220647657443215E-002	1,000000000000000E+000
5,5909264E-001	3,483075614519157E-002	1,000000000000000E+000
5,7209033E-001	5,082680772918202E-002	1,000000000000000E+000
5,8514440E-001	8,680547030944626E-002	1,000000000000000E+000
5,9817183E-001	1,469329344721135E-001	1,000000000000000E+000
6,1116529E-001	2,352440759260834E-001	1,000000000000000E+000
6,2417257E-001	3,587664787482261E-001	1,000000000000000E+000
6,3720649E-001	5,178390110836553E-001	1,000000000000000E+000
6,5026158E-001	7,241120136716752E-001	1,000000000000000E+000
6,6324335E-001	9,696815540325621E-001	1,000000000000000E+000
6,7627084E-001	1,261715651234262E+000	1,000000000000000E+000
6,8929511E-001	1,586863676757623E+000	1,000000000000000E+000
7,0235127E-001	1,941302826378887E+000	1,000000000000000E+000
7,1535003E-001	2,337384194980396E+000	1,000000000000000E+000
7,2833717E-001	2,749643588856772E+000	1,000000000000000E+000
7,4131685E-001	3,189489439298789E+000	1,000000000000000E+000
7,5433791E-001	3,632634507454156E+000	1,000000000000000E+000
7,6728255E-001	4,108474325802597E+000	1,000000000000000E+000
7,8025907E-001	4,575838072466201E+000	1,000000000000000E+000
7,9330778E-001	5,072058737210423E+000	1,000000000000000E+000
8,0629164E-001	5,566711204156064E+000	1,000000000000000E+000
8,1927770E-001	6,073445337429620E+000	1,000000000000000E+000
8,3230841E-001	6,571802168476337E+000	1,000000000000000E+000
8,4530193E-001	7,086031343796371E+000	1,000000000000000E+000
8,5831130E-001	7,599360122296829E+000	1,000000000000000E+000
8,7128043E-001	8,114243809801110E+000	1,000000000000000E+000
8,8430047E-001	8,687385461160119E+000	1,000000000000000E+000
8,9726526E-001	9,226851709035003E+000	1,000000000000000E+000
9,1025138E-001	9,779174889161226E+000	1,000000000000000E+000
9,2330331E-001	1,034881273013389E+001	1,000000000000000E+000
9,3633968E-001	1,092224858281563E+001	1,000000000000000E+000
9,4940174E-001	1,151446291148801E+001	1,000000000000000E+000
9,6237290E-001	1,207802985233515E+001	1,000000000000000E+000
9,7544169E-001	1,266902018971993E+001	1,000000000000000E+000
9,8841608E-001	1,319188289672066E+001	1,000000000000000E+000
9,9926049E-001	1,363828792620686E+001	1,000000000000000E+000
9,8628503E-001	1,271088283753988E+001	1,000000000000000E+000
9,7329372E-001	1,192723030412816E+001	1,000000000000000E+000
9,6028638E-001	1,116694211500300E+001	1,000000000000000E+000
9,4724840E-001	1,047897259191586E+001	1,000000000000000E+000
9,3430257E-001	9,825696731100294E+000	1,000000000000000E+000
9,2126447E-001	9,201060294496763E+000	1,000000000000000E+000
9,0830600E-001	8,605995039820954E+000	1,000000000000000E+000
8,9522445E-001	8,007911395323760E+000	1,000000000000000E+000
8,8226068E-001	7,466183574156410E+000	1,000000000000000E+000
8,6928535E-001	6,899003221672388E+000	1,000000000000000E+000
8,5633528E-001	6,398820838149728E+000	1,000000000000000E+000
8,4325051E-001	5,921930930038684E+000	1,000000000000000E+000
8,3025479E-001	5,431310551439552E+000	1,000000000000000E+000
8,1728250E-001	4,984828384791662E+000	1,000000000000000E+000
8,0426145E-001	4,541286029681849E+000	1,000000000000000E+000
7,9121500E-001	4,114575721407959E+000	1,000000000000000E+000
7,7820879E-001	3,696552091782870E+000	1,000000000000000E+000
7,6520783E-001	3,293945452388456E+000	1,000000000000000E+000
7,5216758E-001	2,909743641492582E+000	1,000000000000000E+000
7,3919851E-001	2,540678524258052E+000	1,000000000000000E+000
7,2620189E-001	2,190139486524121E+000	1,000000000000000E+000
7,1321476E-001	1,850206135605333E+000	1,000000000000000E+000
7,0018834E-001	1,545571804587265E+000	1,000000000000000E+000
6,8719274E-001	1,259858605889032E+000	1,000000000000000E+000
6,7419821E-001	1,003545416261401E+000	1,000000000000000E+000
6,6122484E-001	7,753522402549873E-001	1,000000000000000E+000
6,4818776E-001	5,781732159297115E-001	1,000000000000000E+000
6,3512212E-001	4,154025506093060E-001	1,000000000000000E+000
6,2213290E-001	2,842605395555120E-001	1,000000000000000E+000
6,0910863E-001	1,859349920657252E-001	1,000000000000000E+000
5,9615123E-001	1,147055973651527E-001	1,000000000000000E+000
5,8315986E-001	6,600981067428924E-002	1,000000000000000E+000
5,7001871E-001	3,510810350291776E-002	1,000000000000000E+000
5,5697119E-001	1,726289498057459E-002	1,000000000000000E+000
5,4402751E-001	7,527390236835921E-003	1,000000000000000E+000
5,3075475E-001	2,265358406333268E-003	1,000000000000000E+000
5,1778996E-001	-2,852536529642246E-004	1,000000000000000E+000
5,0479752E-001	-1,730639509959780E-003	1,000000000000000E+000
4,9185821E-001	-2,843152308034620E-003	1,000000000000000E+000
4,7876492E-001	-4,096000019257390E-003	1,000000000000000E+000
4,6584040E-001	-6,373700767765028E-003	1,000000000000000E+000
4,5269930E-001	-1,180312033501651E-002	1,000000000000000E+000
4,3979082E-001	-1,906092863850919E-002	1,000000000000000E+000
4,2676017E-001	-2,111455389362368E-002	1,000000000000000E+000
4,1377196E-001	-1,082224780639536E-002	1,000000000000000E+000
4,0074235E-001	-5,090653772953979E-003	1,000000000000000E+000
3,8756630E-001	-3,298593996065753E-003	1,000000000000000E+000
3,7448892E-001	-2,550106231077539E-003	1,000000000000000E+000
3,6152300E-001	-2,139906939385726E-003	1,000000000000000E+000
3,4852743E-001	-1,878734100573061E-003	1,000000000000000E+000
3,3553922E-001	-1,682693669269552E-003	1,000000000000000E+000
3,2254577E-001	-1,540815389677257E-003	1,000000000000000E+000
3,0959579E-001	-1,438343613864530E-003	1,000000000000000E+000
2,9654920E-001	-1,352943573884548E-003	1,000000000000000E+000
2,8352171E-001	-1,295695888192539E-003	1,000000000000000E+000
2,7051973E-001	-1,243879453368769E-003	1,000000000000000E+000
2,5754008E-001	-1,218879158800200E-003	1,000000000000000E+000
2,4453384E-001	-1,199192477557401E-003	1,000000000000000E+000
2,3160937E-001	-1,189553142392802E-003	1,000000000000000E+000
2,1852882E-001	-1,177083580792514E-003	1,000000000000000E+000
2,0552361E-001	-1,165073486016294E-003	1,000000000000000E+000
1,9253439E-001	-1,152168763142829E-003	1,000000000000000E+000
1,7954409E-001	-1,140142582568969E-003	1,000000000000000E+000
1,6657503E-001	-1,117562517260313E-003	1,000000000000000E+000
1,5353483E-001	-1,090576668807994E-003	1,000000000000000E+000
1,4054665E-001	-1,055767649188481E-003	1,000000000000000E+000
1,2753828E-001	-1,028106454665795E-003	1,000000000000000E+000
1,1453205E-001	-9,987789802043383E-004	1,000000000000000E+000
1,0157680E-001	-9,677539612287390E-004	1,000000000000000E+000
8,8569492E-002	-9,525107918488662E-004	1,000000000000000E+000
7,5634405E-002	-9,428391716764586E-004	1,000000000000000E+000
6,2605873E-002	-9,338604604656846E-004	1,000000000000000E+000
4,9599644E-002	-9,355725875415284E-004	1,000000000000000E+000
3,6573246E-002	-9,524594488642246E-004	1,000000000000000E+000
2,3560645E-002	-9,844116711417595E-004	1,000000000000000E+000
1,0532114E-002	-1,029369991154285E-003	1,000000000000000E+000
-3,0481862E-004	-1,070635995882401E-003	1,000000000000000E+000