File: fig_4_nife_ceo2/Activity_1_CV/Ni25Fe75_Activity_1_CV_1_02_CV_C01.txt
Ewe/V	<I>/mA	cycle number
2,8175203E-004	-4,624285995960236E-001	1,000000000000000E+000
1,3012049E-002	-8,486135693060851E-003	1,000000000000000E+000
2,6134562E-002	-4,111639581797978E-003	1,000000000000000E+000
3,9195325E-002	-2,560638120691470E-003	1,000000000000000E+000
5,2214295E-002	-1,746251162178126E-003	1,000000000000000E+000
6,5181240E-002	-1,243136466845150E-003	1,000000000000000E+000
7,8210838E-002	-9,001846570226464E-004	1,000000000000000E+000
9,1179892E-002	-6,508933574321182E-004	1,000000000000000E+000
1,0414046E-001	-4,656562241940435E-004	1,000000000000000E+000
1,1716899E-001	-3,153742052461046E-004	1,000000000000000E+000
1,3019069E-001	-1,919324599059787E-004	1,000000000000000E+000
1,4312896E-001	-8,771882698852343E-005	1,000000000000000E+000
1,5616009E-001	-1,274213966529552E-007	1,000000000000000E+000
1,6922790E-001	7,729996307576416E-005	1,000000000000000E+000
1,8215981E-001	1,481127816642871E-004	1,000000000000000E+000
1,9513418E-001	2,083345255923714E-004	1,000000000000000E+000
2,0816803E-001	2,654482341375136E-004	1,000000000000000E+000
2,2113284E-001	3,166074827056359E-004	1,000000000000000E+000
2,3417199E-001	3,608814578865450E-004	1,000000000000000E+000
2,4715841E-001	4,023085384982773E-004	1,000000000000000E+000
2,6013094E-001	4,388094515843247E-004	1,000000000000000E+000
2,7315456E-001	4,756027045998952E-004	1,000000000000000E+000
2,8619158E-001	5,133368712884889E-004	1,000000000000000E+000
2,9916811E-001	5,400324396784718E-004	1,000000000000000E+000
3,1211913E-001	5,671428079784720E-004	1,000000000000000E+000
3,2512748E-001	5,931539426105269E-004	1,000000000000000E+000
3,3815283E-001	6,174158780119062E-004	1,000000000000000E+000
3,5117605E-001	6,382823992354780E-004	1,000000000000000E+000
3,6415941E-001	6,613336124895804E-004	1,000000000000000E+000
3,7712660E-001	6,839210357659073E-004	1,000000000000000E+000
3,9013845E-001	6,993829643645796E-004	1,000000000000000E+000
4,0311602E-001	7,186290076994471E-004	1,000000000000000E+000
4,1610843E-001	7,468994953096775E-004	1,000000000000000E+000
4,2909342E-001	7,843846166768441E-004	1,000000000000000E+000
4,4210815E-001	8,488275992366390E-004	1,000000000000000E+000
4,5513985E-001	9,295998108650493E-004	1,000000000000000E+000
4,6812803E-001	1,061992835706336E-003	1,000000000000000E+000
4,8107162E-001	1,300240557336709E-003	1,000000000000000E+000
4,9413478E-001	1,884197052015445E-003	1,000000000000000E+000
5,0710541E-001	3,759215834061936E-003	1,000000000000000E+000
5,2015084E-001	9,605755047347855E-003	1,000000000000000E+000
5,3319848E-001	2,202901229261829E-002	1,000000000000000E+000
5,4623872E-001	3,776035836951670E-002	1,000000000000000E+000
5,5916953E-001	5,934475106979109E-002	1,000000000000000E+000
5,7222039E-001	1,021393915287763E-001	1,000000000000000E+000
5,8531785E-001	1,719272282489841E-001	1,000000000000000E+000
5,9829021E-001	2,688322739713653E-001	1,000000000000000E+000
6,1129630E-001	3,929790259775412E-001	1,000000000000000E+000
6,2429947E-001	5,486120525916496E-001	1,000000000000000E+000
6,3730460E-001	7,381860537458715E-001	1,000000000000000E+000
6,5023965E-001	9,706079401667131E-001	1,000000000000000E+000
6,6335207E-001	1,240783193949062E+000	1,000000000000000E+000
6,7644006E-001	1,557641351616635E+000	1,000000000000000E+000
6,8942833E-001	1,901327125609863E+000	1,000000000000000E+000
7,0239943E-001	2,280317230914591E+000	1,000000000000000E+000
7,1541417E-001	2,685961909811784E+000	1,000000000000000E+000
7,2835791E-001	3,124529977481316E+000	1,000000000000000E+000
7,4137890E-001	3,579315618559075E+000	1,000000000000000E+000
7,5438619E-001	4,061925906679523E+000	1,000000000000000E+000
7,6734996E-001	4,556489544998769E+000	1,000000000000000E+000
7,8044111E-001	5,060926099314173E+000	1,000000000000000E+000
7,9342294E-001	5,591203792362812E+000	1,000000000000000E+000
8,0639297E-001	6,131676484566725E+000	1,000000000000000E+000
8,1944489E-001	6,672431113836183E+000	1,000000000000000E+000
8,3241296E-001	7,236821806890333E+000	1,000000000000000E+000
8,4535980E-001	7,819226841748431E+000	1,000000000000000E+000
8,5840738E-001	8,397950331032135E+000	1,000000000000000E+000
8,7139136E-001	9,006696978123586E+000	1,000000000000000E+000
8,8442290E-001	9,629150357578855E+000	1,000000000000000E+000
8,9738572E-001	1,025637421998574E+001	1,000000000000000E+000
9,1043895E-001	1,093467321831022E+001	1,000000000000000E+000
9,2345011E-001	1,158910520188928E+001	1,000000000000000E+000
9,3647772E-001	1,227840619198048E+001	1,000000000000000E+000
9,4949019E-001	1,295268157388085E+001	1,000000000000000E+000
9,6249330E-001	1,364278099410052E+001	1,000000000000000E+000
9,7546446E-001	1,432969236630703E+001	1,000000000000000E+000
9,8846430E-001	1,501873723557742E+001	1,000000000000000E+000
9,9920887E-001	1,554925572412617E+001	1,000000000000000E+000
9,8624414E-001	1,461510626772358E+001	1,000000000000000E+000
9,7324419E-001	1,379071126016632E+001	1,000000000000000E+000
9,6022844E-001	1,300973875222563E+001	1,000000000000000E+000
9,4725513E-001	1,226831512001095E+001	1,000000000000000E+000
9,3426377E-001	1,154547682032834E+001	1,000000000000000E+000
9,2123401E-001	1,086117379165010E+001	1,000000000000000E+000
9,0828848E-001	1,018785197887563E+001	1,000000000000000E+000
8,9525145E-001	9,538378934673759E+000	1,000000000000000E+000
8,8220590E-001	8,931800174334711E+000	1,000000000000000E+000
8,6926651E-001	8,321286049491945E+000	1,000000000000000E+000
8,5624647E-001	7,740258061966927E+000	1,000000000000000E+000
8,4324241E-001	7,177234925785868E+000	1,000000000000000E+000
8,3027017E-001	6,630561054158335E+000	1,000000000000000E+000
8,1727988E-001	6,098399701673969E+000	1,000000000000000E+000
8,0425566E-001	5,587341362055632E+000	1,000000000000000E+000
7,9127377E-001	5,082988347123283E+000	1,000000000000000E+000
7,7825594E-001	4,600737249330876E+000	1,000000000000000E+000
7,6509035E-001	4,127213624734736E+000	1,000000000000000E+000
7,5210118E-001	3,670421757800767E+000	1,000000000000000E+000
7,3907679E-001	3,232769231643546E+000	1,000000000000000E+000
7,2604090E-001	2,827829236988322E+000	1,000000000000000E+000
7,1312702E-001	2,436121719224113E+000	1,000000000000000E+000
7,0006657E-001	2,068545314460115E+000	1,000000000000000E+000
6,8708777E-001	1,733924152378399E+000	1,000000000000000E+000
6,7409724E-001	1,427975747480689E+000	1,000000000000000E+000
6,6105431E-001	1,157494688224970E+000	1,000000000000000E+000
6,4822865E-001	9,130666789064477E-001	1,000000000000000E+000
6,3506526E-001	7,057048543831526E-001	1,000000000000000E+000
6,2212908E-001	5,292188049528477E-001	1,000000000000000E+000
6,0899121E-001	3,807936633119768E-001	1,000000000000000E+000
5,9598500E-001	2,635838452139510E-001	1,000000000000000E+000
5,8297020E-001	1,703128400871157E-001	1,000000000000000E+000
5,6995451E-001	1,000805072658593E-001	1,000000000000000E+000
5,5696458E-001	5,301260342130698E-002	1,000000000000000E+000
5,4388463E-001	2,414661836285091E-002	1,000000000000000E+000
5,3090703E-001	9,230827234456812E-003	1,000000000000000E+000
5,1785415E-001	2,262345291732215E-003	1,000000000000000E+000
5,0481814E-001	-5,961423195042785E-004	1,000000000000000E+000
4,9176523E-001	-1,950897464058528E-003	1,000000000000000E+000
4,7878447E-001	-2,957458088537170E-003	1,000000000000000E+000
4,6579200E-001	-4,252814727913490E-003	1,000000000000000E+000
4,5274973E-001	-7,176757016949864E-003	1,000000000000000E+000
4,3972403E-001	-1,641830759543289E-002	1,000000000000000E+000
4,2670539E-001	-2,283551749367323E-002	1,000000000000000E+000
4,1369915E-001	-1,041205115117398E-002	1,000000000000000E+000
4,0070564E-001	-4,742374716311018E-003	1,000000000000000E+000
3,8753590E-001	-3,106797332293357E-003	1,000000000000000E+000
3,7449360E-001	-2,422956728909414E-003	1,000000000000000E+000
3,6150539E-001	-2,057884606641507E-003	1,000000000000000E+000
3,4855440E-001	-1,836821718367541E-003	1,000000000000000E+000
3,3549616E-001	-1,660408860431770E-003	1,000000000000000E+000
3,2245663E-001	-1,518585629282147E-003	1,000000000000000E+000
3,0953145E-001	-1,392443666162085E-003	1,000000000000000E+000
2,9651567E-001	-1,292344527430278E-003	1,000000000000000E+000
2,8346908E-001	-1,215033024184072E-003	1,000000000000000E+000
2,7051914E-001	-1,155318833498275E-003	1,000000000000000E+000
2,5753626E-001	-1,119927472835590E-003	1,000000000000000E+000
2,4452367E-001	-1,106165028293681E-003	1,000000000000000E+000
2,3153549E-001	-1,118774987498040E-003	1,000000000000000E+000
2,1850589E-001	-1,135518808798412E-003	1,000000000000000E+000
2,0555125E-001	-1,148692874201742E-003	1,000000000000000E+000
1,9249599E-001	-1,144245010359602E-003	1,000000000000000E+000
1,7954455E-001	-1,121928771495652E-003	1,000000000000000E+000
1,6652027E-001	-1,088928980788793E-003	1,000000000000000E+000
1,5354164E-001	-1,046836929006218E-003	1,000000000000000E+000
1,4051522E-001	-1,010244748951561E-003	1,000000000000000E+000
1,2755466E-001	-9,782251233493421E-004	1,000000000000000E+000
1,1458346E-001	-9,700233568267803E-004	1,000000000000000E+000
1,0156343E-001	-9,731894074867277E-004	1,000000000000000E+000
8,8585377E-002	-1,006215964704769E-003	1,000000000000000E+000
7,5558841E-002	-1,049643812265060E-003	1,000000000000000E+000
6,2591456E-002	-1,093415350624131E-003	1,000000000000000E+000
4,9566120E-002	-1,122405620013265E-003	1,000000000000000E+000
3,6558826E-002	-1,132164151210656E-003	1,000000000000000E+000
2,3553655E-002	-1,126576707690286E-003	1,000000000000000E+000
1,0579280E-002	-1,119439348835769E-003	1,000000000000000E+000
-1,9606702E-004	-1,103250522111706E-003	1,000000000000000E+000