File: fig_4_nife_ceo2/Activity_1_CV/Ni50Fe50_Activity1_CV1_02_CV_C01.txt
Ewe/V	<I>/mA	cycle number
1,8872067E-004	-5,038733482360840E-001	1,000000000000000E+000
1,5754322E-002	-4,480561850447137E-003	1,000000000000000E+000
3,1842630E-002	-2,138082692434602E-003	1,000000000000000E+000
4,7865495E-002	-1,262859793563962E-003	1,000000000000000E+000
6,3869536E-002	-7,965477902043749E-004	1,000000000000000E+000
7,9861306E-002	-5,110348648154212E-004	1,000000000000000E+000
9,5859751E-002	-3,357628839857295E-004	1,000000000000000E+000
1,1190596E-001	-2,178230963596497E-004	1,000000000000000E+000
1,2791599E-001	-1,419554588973455E-004	1,000000000000000E+000
1,4380835E-001	-8,046762187734159E-005	1,000000000000000E+000
1,5983014E-001	-3,464347258119548E-005	1,000000000000000E+000
1,7584981E-001	3,412474529789439E-006	1,000000000000000E+000
1,9189285E-001	3,236949953041115E-005	1,000000000000000E+000
2,0779997E-001	5,111844718816389E-005	1,000000000000000E+000
2,2380586E-001	7,636715469747882E-005	1,000000000000000E+000
2,3980427E-001	1,083270000363026E-004	1,000000000000000E+000
2,5584626E-001	1,422564687500259E-004	1,000000000000000E+000
2,7181974E-001	1,839718966653967E-004	1,000000000000000E+000
2,8793979E-001	2,298098353380913E-004	1,000000000000000E+000
3,0382138E-001	2,842949247792346E-004	1,000000000000000E+000
3,1990051E-001	3,470168057427567E-004	1,000000000000000E+000
3,3586192E-001	4,220032925899547E-004	1,000000000000000E+000
3,5179865E-001	4,718039372061536E-004	1,000000000000000E+000
3,6783642E-001	4,995575785284008E-004	1,000000000000000E+000
3,8387519E-001	5,198549626373936E-004	1,000000000000000E+000
3,9986247E-001	5,373355433795669E-004	1,000000000000000E+000
4,1585401E-001	5,443614968096717E-004	1,000000000000000E+000
4,3185243E-001	5,924743195062383E-004	1,000000000000000E+000
4,4788694E-001	7,640148475509109E-004	1,000000000000000E+000
4,6391296E-001	1,183380487125763E-003	1,000000000000000E+000
4,7989553E-001	2,010223900880412E-003	1,000000000000000E+000
4,9585366E-001	3,844739056045550E-003	1,000000000000000E+000
5,1185530E-001	6,586342788992505E-003	1,000000000000000E+000
5,2778995E-001	9,862471982409582E-003	1,000000000000000E+000
5,4387152E-001	1,565026068497077E-002	1,000000000000000E+000
5,5993438E-001	3,063780429420349E-002	1,000000000000000E+000
5,7591593E-001	7,202838573873027E-002	1,000000000000000E+000
5,9207892E-001	1,592808237516843E-001	1,000000000000000E+000
6,0810411E-001	3,070340474032833E-001	1,000000000000000E+000
6,2405241E-001	5,306606376311356E-001	1,000000000000000E+000
6,3996917E-001	8,561377144437703E-001	1,000000000000000E+000
6,5621066E-001	1,288236972772418E+000	1,000000000000000E+000
6,7211014E-001	1,839171588891279E+000	1,000000000000000E+000
6,8808019E-001	2,493787816508160E+000	1,000000000000000E+000
7,0409989E-001	3,247897066327980E+000	1,000000000000000E+000
7,2012693E-001	4,081493403162831E+000	1,000000000000000E+000
7,3614442E-001	4,998035303724578E+000	1,000000000000000E+000
7,5220233E-001	5,967364618803913E+000	1,000000000000000E+000
7,6812440E-001	6,990248623889045E+000	1,000000000000000E+000
7,8413129E-001	8,055209267571939E+000	1,000000000000000E+000
8,0009151E-001	9,167807252701692E+000	1,000000000000000E+000
8,1608289E-001	1,030627043929825E+001	1,000000000000000E+000
8,3215213E-001	1,148121750172304E+001	1,000000000000000E+000
8,4821004E-001	1,266328120488424E+001	1,000000000000000E+000
8,6416918E-001	1,384986715170800E+001	1,000000000000000E+000
8,8019174E-001	1,505143788878274E+001	1,000000000000000E+000
8,9616287E-001	1,628431112777076E+001	1,000000000000000E+000
9,1222715E-001	1,755786556356884E+001	1,000000000000000E+000
9,2814171E-001	1,884392510384930E+001	1,000000000000000E+000
9,4417202E-001	2,016067508126604E+001	1,000000000000000E+000
9,6017796E-001	2,151437160879578E+001	1,000000000000000E+000
9,7620922E-001	2,286782198819981E+001	1,000000000000000E+000
9,9218225E-001	2,425919449315870E+001	1,000000000000000E+000
9,9326211E-001	2,422891764900308E+001	1,000000000000000E+000
9,7733688E-001	2,260499302735400E+001	1,000000000000000E+000
9,6129173E-001	2,109877606259997E+001	1,000000000000000E+000
9,4525492E-001	1,957711804810208E+001	1,000000000000000E+000
9,2930448E-001	1,822298192937347E+001	1,000000000000000E+000
9,1330594E-001	1,691309601541559E+001	1,000000000000000E+000
8,9727247E-001	1,559754442127920E+001	1,000000000000000E+000
8,8120967E-001	1,435263281882010E+001	1,000000000000000E+000
8,6522675E-001	1,312462638903096E+001	1,000000000000000E+000
8,4929734E-001	1,193796422144995E+001	1,000000000000000E+000
8,3328187E-001	1,078187350114455E+001	1,000000000000000E+000
8,1727922E-001	9,664072774502685E+000	1,000000000000000E+000
8,0130905E-001	8,564312184731207E+000	1,000000000000000E+000
7,8525782E-001	7,518026681038222E+000	1,000000000000000E+000
7,6923609E-001	6,516787969065899E+000	1,000000000000000E+000
7,5327909E-001	5,542297805754494E+000	1,000000000000000E+000
7,3726052E-001	4,641805695143759E+000	1,000000000000000E+000
7,2118664E-001	3,798425651157523E+000	1,000000000000000E+000
7,0519251E-001	3,033679661533185E+000	1,000000000000000E+000
6,8920577E-001	2,348133317467308E+000	1,000000000000000E+000
6,7322987E-001	1,748810588674985E+000	1,000000000000000E+000
6,5726197E-001	1,244821819546473E+000	1,000000000000000E+000
6,4122951E-001	8,403119671405559E-001	1,000000000000000E+000
6,2523532E-001	5,309230155330504E-001	1,000000000000000E+000
6,0902661E-001	3,138348189248061E-001	1,000000000000000E+000
5,9311414E-001	1,703593387266369E-001	1,000000000000000E+000
5,7707113E-001	8,211355138033682E-002	1,000000000000000E+000
5,6093150E-001	3,441406456624796E-002	1,000000000000000E+000
5,4494148E-001	1,244476102023276E-002	1,000000000000000E+000
5,2883267E-001	3,542866748628297E-003	1,000000000000000E+000
5,1282471E-001	3,943348836632108E-004	1,000000000000000E+000
4,9677950E-001	-8,061048663261594E-004	1,000000000000000E+000
4,8079172E-001	-1,847163121843735E-003	1,000000000000000E+000
4,6482405E-001	-4,408907525162438E-003	1,000000000000000E+000
4,4883093E-001	-9,804703269294782E-003	1,000000000000000E+000
4,3271148E-001	-1,055121619013865E-002	1,000000000000000E+000
4,1671300E-001	-5,416481272589898E-003	1,000000000000000E+000
4,0063712E-001	-2,907218475309635E-003	1,000000000000000E+000
3,8465878E-001	-2,022379533040056E-003	1,000000000000000E+000
3,6862108E-001	-1,641622769182796E-003	1,000000000000000E+000
3,5255042E-001	-1,439025628036579E-003	1,000000000000000E+000
3,3659768E-001	-1,271265925641359E-003	1,000000000000000E+000
3,2058117E-001	-1,158032666357518E-003	1,000000000000000E+000
3,0461353E-001	-1,062200035642629E-003	1,000000000000000E+000
2,8867880E-001	-9,818857845748270E-004	1,000000000000000E+000
2,7270690E-001	-9,130274509128646E-004	1,000000000000000E+000
2,5662878E-001	-8,584233000297078E-004	1,000000000000000E+000
2,4065481E-001	-8,072383963669771E-004	1,000000000000000E+000
2,2464149E-001	-7,683782983729862E-004	1,000000000000000E+000
2,0864941E-001	-7,339820584757149E-004	1,000000000000000E+000
1,9261900E-001	-7,079100463767756E-004	1,000000000000000E+000
1,7662176E-001	-6,868915801463045E-004	1,000000000000000E+000
1,6066049E-001	-6,718006525735787E-004	1,000000000000000E+000
1,4465567E-001	-6,580194620218402E-004	1,000000000000000E+000
1,2865962E-001	-6,536020134862283E-004	1,000000000000000E+000
1,1266305E-001	-6,512177594835879E-004	1,000000000000000E+000
9,6669920E-002	-6,655694029474510E-004	1,000000000000000E+000
8,0631129E-002	-6,959507901886652E-004	1,000000000000000E+000
6,4639062E-002	-7,245736101851715E-004	1,000000000000000E+000
4,8607703E-002	-7,336793149289693E-004	1,000000000000000E+000
3,2660231E-002	-7,509001169804545E-004	1,000000000000000E+000
1,6656483E-002	-7,670798874648247E-004	1,000000000000000E+000
6,0707750E-004	-7,915934971635345E-004	1,000000000000000E+000
1,3345483E-002	-3,812944756458377E-004	1,000000000000000E+000
2,9352665E-002	-2,245070643028343E-004	1,000000000000000E+000
4,5333046E-002	-1,178316891269953E-004	1,000000000000000E+000
6,1385639E-002	-1,554058005123312E-005	1,000000000000000E+000
7,7359654E-002	7,377491974402538E-005	1,000000000000000E+000
9,3392074E-002	1,491812251588720E-004	1,000000000000000E+000
1,0933104E-001	2,084685090235959E-004	1,000000000000000E+000
1,2535392E-001	2,619031494280073E-004	1,000000000000000E+000
1,4134917E-001	3,130280149375546E-004	1,000000000000000E+000
1,5741239E-001	3,455698214872190E-004	1,000000000000000E+000
1,7338426E-001	3,590453162461123E-004	1,000000000000000E+000
1,8938908E-001	3,567736571013676E-004	1,000000000000000E+000
2,0535566E-001	3,267357734245734E-004	1,000000000000000E+000
2,2132528E-001	2,939849784176746E-004	1,000000000000000E+000
2,3729733E-001	2,765824977002656E-004	1,000000000000000E+000
2,5328514E-001	2,717157245475123E-004	1,000000000000000E+000
2,6930800E-001	2,915617943408242E-004	1,000000000000000E+000
2,8533831E-001	3,481144389722540E-004	1,000000000000000E+000
3,0132613E-001	4,207517307605636E-004	1,000000000000000E+000
3,1735533E-001	4,915907586208793E-004	1,000000000000000E+000
3,3333570E-001	5,450076404075596E-004	1,000000000000000E+000
3,4940532E-001	5,763599899292048E-004	1,000000000000000E+000
3,6536765E-001	5,795016589954221E-004	1,000000000000000E+000
3,8133106E-001	5,707703700849488E-004	1,000000000000000E+000
3,9733264E-001	5,644193548472436E-004	1,000000000000000E+000
4,1334492E-001	5,656403834589886E-004	1,000000000000000E+000
4,2931259E-001	6,196785338123392E-004	1,000000000000000E+000
4,4530994E-001	7,880249970696543E-004	1,000000000000000E+000
4,6135294E-001	1,173099290227209E-003	1,000000000000000E+000
4,6594763E-001	1,240377173720237E-003	1,000000000000000E+000