File: fig_4_nife_ceo2/Activity_1_CV/Ni75Fe25_Activity_1_CV_1_02_CV_C01.txt
Ewe/V	<I>/mA	cycle number
5,5791446E-005	-1,208778381347656E+000	1,000000000000000E+000
1,2935665E-002	-9,921533764126733E-002	1,000000000000000E+000
2,5930217E-002	-5,275558099803201E-002	1,000000000000000E+000
3,9177485E-002	-3,463301437171993E-002	1,000000000000000E+000
5,2180525E-002	-2,524496521668784E-002	1,000000000000000E+000
6,5166578E-002	-1,942857662759628E-002	1,000000000000000E+000
7,8166336E-002	-1,552540213667775E-002	1,000000000000000E+000
9,1139756E-002	-1,269181972620859E-002	1,000000000000000E+000
1,0419271E-001	-1,058736791736034E-002	1,000000000000000E+000
1,1715115E-001	-8,937612838334108E-003	1,000000000000000E+000
1,3019349E-001	-7,618202002272360E-003	1,000000000000000E+000
1,4316574E-001	-6,527251681833476E-003	1,000000000000000E+000
1,5615073E-001	-5,636419686181244E-003	1,000000000000000E+000
1,6918352E-001	-4,856573054380871E-003	1,000000000000000E+000
1,8225345E-001	-4,257865769623892E-003	1,000000000000000E+000
1,9523951E-001	-3,696535266754997E-003	1,000000000000000E+000
2,0817885E-001	-3,209312023254973E-003	1,000000000000000E+000
2,2120965E-001	-2,777942763432448E-003	1,000000000000000E+000
2,3422319E-001	-2,384747641634009E-003	1,000000000000000E+000
2,4726762E-001	-2,052493188968411E-003	1,000000000000000E+000
2,6019421E-001	-1,740349116529253E-003	1,000000000000000E+000
2,7323228E-001	-1,469642145251922E-003	1,000000000000000E+000
2,8628099E-001	-1,216250381242011E-003	1,000000000000000E+000
2,9921290E-001	-9,781303939201957E-004	1,000000000000000E+000
3,1221065E-001	-7,672456804089251E-004	1,000000000000000E+000
3,2519776E-001	-5,747965788362129E-004	1,000000000000000E+000
3,3825389E-001	-3,995951862682119E-004	1,000000000000000E+000
3,5125378E-001	-2,398756946016640E-004	1,000000000000000E+000
3,6424831E-001	-9,794052535343082E-005	1,000000000000000E+000
3,7721735E-001	4,886919922409094E-005	1,000000000000000E+000
3,9022678E-001	1,845170120561334E-004	1,000000000000000E+000
4,0320736E-001	3,384523408088633E-004	1,000000000000000E+000
4,1624561E-001	5,013641837901244E-004	1,000000000000000E+000
4,2922637E-001	6,841504083795313E-004	1,000000000000000E+000
4,4218376E-001	9,116961610287824E-004	1,000000000000000E+000
4,5523879E-001	1,240809716366375E-003	1,000000000000000E+000
4,6822700E-001	1,973075980147402E-003	1,000000000000000E+000
4,8120672E-001	4,094261652809805E-003	1,000000000000000E+000
4,9427131E-001	8,365672067519958E-003	1,000000000000000E+000
5,0735086E-001	1,554628382748438E-002	1,000000000000000E+000
5,2034533E-001	2,711854289684981E-002	1,000000000000000E+000
5,3326344E-001	4,251429483837241E-002	1,000000000000000E+000
5,4638141E-001	5,335946210565323E-002	1,000000000000000E+000
5,5929500E-001	6,061454350762330E-002	1,000000000000000E+000
5,7231933E-001	7,881302249199751E-002	1,000000000000000E+000
5,8545262E-001	1,144997343655706E-001	1,000000000000000E+000
5,9839123E-001	1,690041163287925E-001	1,000000000000000E+000
6,1141658E-001	2,452376959803197E-001	1,000000000000000E+000
6,2441325E-001	3,480134339614560E-001	1,000000000000000E+000
6,3737816E-001	4,778872596695507E-001	1,000000000000000E+000
6,5037799E-001	6,372200421769332E-001	1,000000000000000E+000
6,6342038E-001	8,271827515206240E-001	1,000000000000000E+000
6,7639673E-001	1,048200630023233E+000	1,000000000000000E+000
6,8955165E-001	1,303137433865106E+000	1,000000000000000E+000
7,0262587E-001	1,582713636445082E+000	1,000000000000000E+000
7,1562672E-001	1,880156021928434E+000	1,000000000000000E+000
7,2855979E-001	2,208507106760543E+000	1,000000000000000E+000
7,4162751E-001	2,551715917243307E+000	1,000000000000000E+000
7,5461358E-001	2,917165126795140E+000	1,000000000000000E+000
7,6754129E-001	3,302693068541920E+000	1,000000000000000E+000
7,8056341E-001	3,702845533114438E+000	1,000000000000000E+000
7,9356962E-001	4,094753780366347E+000	1,000000000000000E+000
8,0657172E-001	4,526672852789458E+000	1,000000000000000E+000
8,1957680E-001	4,943608302073958E+000	1,000000000000000E+000
8,3260846E-001	5,383818285467967E+000	1,000000000000000E+000
8,4556913E-001	5,843234380829614E+000	1,000000000000000E+000
8,5864961E-001	6,286846428704109E+000	1,000000000000000E+000
8,7159324E-001	6,755287908636276E+000	1,000000000000000E+000
8,8461000E-001	7,230947316909351E+000	1,000000000000000E+000
8,9754188E-001	7,728393845952823E+000	1,000000000000000E+000
9,1056734E-001	8,225234979337055E+000	1,000000000000000E+000
9,2354375E-001	8,753737698606955E+000	1,000000000000000E+000
9,3659985E-001	9,283165875475976E+000	1,000000000000000E+000
9,4955957E-001	9,795503635795729E+000	1,000000000000000E+000
9,6256679E-001	1,031356839663323E+001	1,000000000000000E+000
9,7563350E-001	1,083953061524156E+001	1,000000000000000E+000
9,8876506E-001	1,136151471267755E+001	1,000000000000000E+000
9,9941725E-001	1,175663721351935E+001	1,000000000000000E+000
9,8637593E-001	1,086197157761677E+001	1,000000000000000E+000
9,7327626E-001	1,013048012368802E+001	1,000000000000000E+000
9,6033907E-001	9,468321717447701E+000	1,000000000000000E+000
9,4737422E-001	8,827450711170297E+000	1,000000000000000E+000
9,3431067E-001	8,243179976872540E+000	1,000000000000000E+000
9,2128211E-001	7,704628614746852E+000	1,000000000000000E+000
9,0834183E-001	7,150343065764631E+000	1,000000000000000E+000
8,9539820E-001	6,670092397446155E+000	1,000000000000000E+000
8,8238239E-001	6,190664488205556E+000	1,000000000000000E+000
8,6937189E-001	5,722909213159909E+000	1,000000000000000E+000
8,5636067E-001	5,295546075389366E+000	1,000000000000000E+000
8,4332651E-001	4,883517409803659E+000	1,000000000000000E+000
8,3036166E-001	4,504861511678655E+000	1,000000000000000E+000
8,1728119E-001	4,134744285084246E+000	1,000000000000000E+000
8,0427605E-001	3,755428640378852E+000	1,000000000000000E+000
7,9125166E-001	3,383690681114224E+000	1,000000000000000E+000
7,7826995E-001	3,043821124803456E+000	1,000000000000000E+000
7,6527011E-001	2,705472786511699E+000	1,000000000000000E+000
7,5227827E-001	2,393965906748061E+000	1,000000000000000E+000
7,3926497E-001	2,089793248123183E+000	1,000000000000000E+000
7,2628433E-001	1,802998252111635E+000	1,000000000000000E+000
7,1337062E-001	1,534073956727891E+000	1,000000000000000E+000
7,0032066E-001	1,283634407103671E+000	1,000000000000000E+000
6,8726343E-001	1,060739307252524E+000	1,000000000000000E+000
6,7428482E-001	8,522219000270166E-001	1,000000000000000E+000
6,6132212E-001	6,676608374354984E-001	1,000000000000000E+000
6,4829677E-001	5,093833676701971E-001	1,000000000000000E+000
6,3508767E-001	3,745976102785498E-001	1,000000000000000E+000
6,2209105E-001	2,671923423735016E-001	1,000000000000000E+000
6,0909224E-001	1,814906106566974E-001	1,000000000000000E+000
5,9606695E-001	1,184242334672989E-001	1,000000000000000E+000
5,8306813E-001	7,349892023606591E-002	1,000000000000000E+000
5,6990790E-001	4,351775163717497E-002	1,000000000000000E+000
5,5691546E-001	2,506720696659359E-002	1,000000000000000E+000
5,4389977E-001	1,397556582581394E-002	1,000000000000000E+000
5,3092760E-001	7,344126184547401E-003	1,000000000000000E+000
5,1779908E-001	3,132933622965656E-003	1,000000000000000E+000
5,0478232E-001	2,931616919073144E-004	1,000000000000000E+000
4,9184015E-001	-1,932032210627890E-003	1,000000000000000E+000
4,7884837E-001	-3,992407957156323E-003	1,000000000000000E+000
4,6579009E-001	-6,564883456107146E-003	1,000000000000000E+000
4,5269999E-001	-1,149915685838140E-002	1,000000000000000E+000
4,3968421E-001	-2,033069496934747E-002	1,000000000000000E+000
4,2668757E-001	-2,278142050449799E-002	1,000000000000000E+000
4,1371211E-001	-1,611450141139516E-002	1,000000000000000E+000
4,0073031E-001	-1,344065944932912E-002	1,000000000000000E+000
3,8772577E-001	-1,294034268803576E-002	1,000000000000000E+000
3,7479535E-001	-1,319987853289989E-002	1,000000000000000E+000
3,6171481E-001	-1,377976989669752E-002	1,000000000000000E+000
3,4878436E-001	-1,451242960331203E-002	1,000000000000000E+000
3,3572674E-001	-1,532443297278269E-002	1,000000000000000E+000
3,2270142E-001	-1,611257393716664E-002	1,000000000000000E+000
3,0975464E-001	-1,695570911773401E-002	1,000000000000000E+000
2,9667196E-001	-1,767145679820678E-002	1,000000000000000E+000
2,8374219E-001	-1,825051155952884E-002	1,000000000000000E+000
2,7075717E-001	-1,872241184751078E-002	1,000000000000000E+000
2,5768939E-001	-1,903437971704491E-002	1,000000000000000E+000
2,4475321E-001	-1,913928051738917E-002	1,000000000000000E+000
2,3175018E-001	-1,909037138168579E-002	1,000000000000000E+000
2,1873756E-001	-1,885643997506808E-002	1,000000000000000E+000
2,0573671E-001	-1,847217092812070E-002	1,000000000000000E+000
1,9271342E-001	-1,790548515648110E-002	1,000000000000000E+000
1,7975818E-001	-1,721957907985577E-002	1,000000000000000E+000
1,6675299E-001	-1,653821014560539E-002	1,000000000000000E+000
1,5377119E-001	-1,571963181760891E-002	1,000000000000000E+000
1,4076708E-001	-1,491413308297496E-002	1,000000000000000E+000
1,2779483E-001	-1,403657204902869E-002	1,000000000000000E+000
1,1473445E-001	-1,321649623181047E-002	1,000000000000000E+000
1,0177812E-001	-1,240253695334326E-002	1,000000000000000E+000
8,8700749E-002	-1,158579953831607E-002	1,000000000000000E+000
7,5768851E-002	-1,083704938728240E-002	1,000000000000000E+000
6,2716849E-002	-1,011868456020695E-002	1,000000000000000E+000
4,9774438E-002	-9,452227443929699E-003	1,000000000000000E+000
3,6806434E-002	-8,853771443129765E-003	1,000000000000000E+000
2,3754548E-002	-8,288480602511056E-003	1,000000000000000E+000
1,0735575E-002	-7,749801552843921E-003	1,000000000000000E+000
-2,1178722E-004	-7,349314825499775E-003	1,000000000000000E+000