File: fig_4_nife_ceo2/EIS_1_nyquist/Fe100_OCP+EIS_1_02_PEIS_C01.txt
freq/Hz	Re(Z)/Ohm	-Im(Z)/Ohm	|Z|/Ohm	Phase(Z)/deg	time/s	<Ewe>/V	<I>/mA	Cs/�F	Cp/�F	cycle number	I Range	|Ewe|/V	|I|/A	Ns	(Q-Qo)/mA.h	Re(Y)/Ohm-1	Im(Y)/Ohm-1	|Y|/Ohm-1	Phase(Y)/deg	Re(C)/nF	Im(C)/nF	|C|/nF	Phase(C)/deg	Re(M)	Im(M)	|M|	Phase(M)/deg	Re(Permittivity)	Im(Permittivity)	|Permittivity|	Phase(Permittivity)/deg	Re(Resistivity)/Ohm.cm	Im(Resistivity)/Ohm.cm	|Resistivity|/Ohm.cm	Phase(Resistivity)/deg	Re(Conductivity)/mS/cm	Im(Conductivity)/mS/cm	|Conductivity|/mS/cm
1,9999814E+005	6,5037112E+000	-5,3593773E-001	6,5257559E+000	4,7108097E+000	6,013900721620157E+002	6,9979936E-001	2,2810941E+000	-1,4848406E+000	-1,0014906E-002	1,000000000000000E+000	10	9,9010421E-003	1,5172253E-003	0	7,205124265027957E-004	1,5272130E-001	-1,2584984E-002	1,5323895E-001	-4,7108097E+000	-1,0014902E+001	1,2153288E+002	1,2194482E+002	-9,4710808E+001	0,0000000E+000	0,0000000E+000	0,0000000E+000	9,4710808E+001	0,0000000E+000	0,0000000E+000	0,0000000E+000	-9,4710808E+001	0,0000000E+000	0,0000000E+000	0,0000000E+000	4,7108097E+000	0,0000000E+000	0,0000000E+000	0,0000000E+000	-4,7108097E+000	1,2135200E+001	8,5289192E+001	7,205124265027957E-004
6,3233004E+004	6,1260271E+000	3,9509556E-001	6,1387548E+000	-3,6901565E+000	6,035000750889158E+002	6,9989645E-001	2,1696441E+000	6,3705096E+000	2,6388694E-002	1,000000000000000E+000	10	1,0394550E-002	1,6932668E-003	0	1,991920843525609E-003	1,6256174E-001	1,0484351E-002	1,6289948E-001	3,6901565E+000	2,6388683E+001	4,0916144E+002	4,1001151E+002	-8,6309845E+001	0,0000000E+000	0,0000000E+000	0,0000000E+000	8,6309845E+001	0,0000000E+000	0,0000000E+000	0,0000000E+000	-8,6309845E+001	0,0000000E+000	0,0000000E+000	0,0000000E+000	-3,6901565E+000	0,0000000E+000	0,0000000E+000	0,0000000E+000	3,6901565E+000	1,5505178E+001	8,6309845E+001	2,512287038144293E-004
1,9995176E+004	6,3364859E+000	1,1159056E+000	6,4339957E+000	-9,9878292E+000	6,056110745224723E+002	6,9991046E-001	2,1230941E+000	7,1329212E+000	2,1456596E-001	1,000000000000000E+000	10	1,0176119E-002	1,5816174E-003	0	3,227016761417048E-003	1,5306890E-001	2,6956651E-002	1,5542442E-001	9,9878292E+000	2,1456599E+002	1,2183773E+003	1,2371265E+003	-8,0012169E+001	0,0000000E+000	0,0000000E+000	0,0000000E+000	8,0012169E+001	0,0000000E+000	0,0000000E+000	0,0000000E+000	-8,0012169E+001	0,0000000E+000	0,0000000E+000	0,0000000E+000	-9,9878292E+000	0,0000000E+000	0,0000000E+000	0,0000000E+000	9,9878292E+000	5,6783347E+000	8,0012169E+001	2,447945644899739E-004
6,3238188E+003	6,9667287E+000	3,0860167E+000	7,6196332E+000	-2,3891665E+001	6,074618717304402E+002	6,9993657E-001	2,0757883E+000	8,1553469E+000	1,3377373E+000	1,000000000000000E+000	10	1,0522488E-002	1,3809704E-003	0	4,265765046573762E-003	1,1999433E-001	5,3153288E-002	1,3123991E-001	2,3891665E+001	1,3377374E+003	3,0199624E+003	3,3029856E+003	-6,6108337E+001	0,0000000E+000	0,0000000E+000	0,0000000E+000	6,6108337E+001	0,0000000E+000	0,0000000E+000	0,0000000E+000	-6,6108337E+001	0,0000000E+000	0,0000000E+000	0,0000000E+000	-2,3891665E+001	0,0000000E+000	0,0000000E+000	0,0000000E+000	2,3891665E+001	2,2575150E+000	6,6108337E+001	2,211975722247739E-004
1,9980818E+003	9,7375908E+000	7,9742007E+000	1,2586046E+001	-3,9314354E+001	6,097895257876517E+002	6,9999909E-001	2,0470223E+000	9,9889469E+000	4,0097322E+000	1,000000000000000E+000	10	1,0310002E-002	8,1916130E-004	0	5,582126190454518E-003	6,1471369E-002	5,0339453E-002	7,9453066E-002	3,9314354E+001	4,0097319E+003	4,8964321E+003	6,3287437E+003	-5,0685646E+001	0,0000000E+000	0,0000000E+000	0,0000000E+000	5,0685646E+001	0,0000000E+000	0,0000000E+000	0,0000000E+000	-5,0685646E+001	0,0000000E+000	0,0000000E+000	0,0000000E+000	-3,9314354E+001	0,0000000E+000	0,0000000E+000	0,0000000E+000	3,9314354E+001	1,2211369E+000	5,0685638E+001	2,602989313447487E-004
6,3181964E+002	1,9618980E+001	1,4274414E+001	2,4262384E+001	-3,6038956E+001	6,121127730446606E+002	7,0000184E-001	2,0340338E+000	1,7646912E+001	6,1082716E+000	1,000000000000000E+000	10	1,0142800E-002	4,1804631E-004	0	6,874261308250108E-003	3,3328015E-002	2,4248861E-002	4,1216064E-002	3,6038956E+001	6,1082715E+003	8,3953047E+003	1,0382299E+004	-5,3961044E+001	0,0000000E+000	0,0000000E+000	0,0000000E+000	5,3961044E+001	0,0000000E+000	0,0000000E+000	0,0000000E+000	-5,3961044E+001	0,0000000E+000	0,0000000E+000	0,0000000E+000	-3,6038956E+001	0,0000000E+000	0,0000000E+000	0,0000000E+000	3,6038956E+001	1,3744158E+000	5,3961044E+001	2,576031566635167E-004
1,9980818E+002	3,3855106E+001	1,2040617E+001	3,5932503E+001	-1,9578001E+001	6,146885154870251E+002	6,9997907E-001	2,0142205E+000	6,6154305E+001	7,4281497E+000	1,000000000000000E+000	11	1,0138444E-002	2,8215244E-004	0	8,279199574787247E-003	2,6221000E-002	9,3255360E-003	2,7829956E-002	1,9578001E+001	7,4281504E+003	2,0886041E+004	2,2167637E+004	-7,0421997E+001	0,0000000E+000	0,0000000E+000	0,0000000E+000	7,0421997E+001	0,0000000E+000	0,0000000E+000	0,0000000E+000	-7,0421997E+001	0,0000000E+000	0,0000000E+000	0,0000000E+000	-1,9578001E+001	0,0000000E+000	0,0000000E+000	0,0000000E+000	1,9578001E+001	2,8117418E+000	7,0421997E+001	2,563802052046715E-004
6,3160763E+001	4,0188240E+001	5,6668239E+000	4,0585804E+001	-8,0261908E+000	6,170301778381545E+002	6,9997454E-001	1,9917988E+000	4,4466510E+002	8,6689034E+000	1,000000000000000E+000	11	1,0119740E-002	2,4934186E-004	0	9,558781595689271E-003	2,4397802E-002	3,4402609E-003	2,4639158E-002	8,0261908E+000	8,6689043E+003	6,1478527E+004	6,2086707E+004	-8,1973808E+001	0,0000000E+000	0,0000000E+000	0,0000000E+000	8,1973808E+001	0,0000000E+000	0,0000000E+000	0,0000000E+000	-8,1973808E+001	0,0000000E+000	0,0000000E+000	0,0000000E+000	-8,0261908E+000	0,0000000E+000	0,0000000E+000	0,0000000E+000	8,0261908E+000	7,0918455E+000	8,1973808E+001	2,600227789075066E-004
1,9980818E+001	4,2161831E+001	2,6958921E+000	4,2247932E+001	-3,6585994E+000	6,193335074943170E+002	6,9998896E-001	1,9815426E+000	2,9546387E+003	1,2030910E+001	1,000000000000000E+000	11	1,0110378E-002	2,3931060E-004	0	1,080983954053998E-002	2,3621559E-002	1,5103987E-003	2,3669798E-002	3,6585994E+000	1,2030910E+004	1,8815483E+005	1,8853908E+005	-8,6341400E+001	0,0000000E+000	0,0000000E+000	0,0000000E+000	8,6341400E+001	0,0000000E+000	0,0000000E+000	0,0000000E+000	-8,6341400E+001	0,0000000E+000	0,0000000E+000	0,0000000E+000	-3,6585994E+000	0,0000000E+000	0,0000000E+000	0,0000000E+000	3,6585994E+000	1,5639287E+001	8,6341400E+001	2,517313441381171E-004
6,3105812E+000	4,2802330E+001	1,0767363E+000	4,2815872E+001	-1,4410299E+000	6,217367654751142E+002	6,9995517E-001	1,9642717E+000	2,3422941E+004	1,4813257E+001	1,000000000000000E+000	11	1,0116535E-002	2,3628002E-004	0	1,211604912377640E-002	2,3348438E-002	5,8735377E-004	2,3355825E-002	1,4410299E+000	1,4813283E+004	5,8885531E+005	5,8904163E+005	-8,8558968E+001	0,0000000E+000	0,0000000E+000	0,0000000E+000	8,8558968E+001	0,0000000E+000	0,0000000E+000	0,0000000E+000	-8,8558968E+001	0,0000000E+000	0,0000000E+000	0,0000000E+000	-1,4410299E+000	0,0000000E+000	0,0000000E+000	0,0000000E+000	1,4410299E+000	3,9751915E+001	8,8558968E+001	2,069309036839724E-004
1,9970603E+000	4,2779686E+001	-2,2899500E-001	4,2780300E+001	3,0669513E-001	6,254482799180987E+002	6,9998902E-001	1,9554142E+000	-3,4801900E+005	-9,9716558E+000	1,000000000000000E+000	11	1,0118069E-002	2,3651234E-004	0	1,410855434157208E-002	2,3374910E-002	-1,2512335E-004	2,3375245E-002	-3,0669513E-001	-9,9716211E+003	1,8628544E+006	1,8628811E+006	-9,0306694E+001	0,0000000E+000	0,0000000E+000	0,0000000E+000	9,0306694E+001	0,0000000E+000	0,0000000E+000	0,0000000E+000	-9,0306694E+001	0,0000000E+000	0,0000000E+000	0,0000000E+000	3,0669513E-001	0,0000000E+000	0,0000000E+000	0,0000000E+000	-3,0669513E-001	1,8681494E+002	8,9693306E+001	5,841630595823655E-004
6,2907392E-001	5,2882137E+001	7,7720404E-001	5,2887848E+001	-8,4201038E-001	8,411249690955010E+002	6,9995147E-001	1,6687127E+000	3,2552428E+005	7,0297798E+001	1,000000000000000E+000	11	1,0344862E-002	1,9559998E-004	0	1,174437270673174E-001	1,8905893E-002	2,7785823E-004	1,8907934E-002	8,4201038E-001	7,0297813E+004	4,7831685E+006	4,7836850E+006	-8,9157990E+001	0,0000000E+000	0,0000000E+000	0,0000000E+000	8,9157990E+001	0,0000000E+000	0,0000000E+000	0,0000000E+000	-8,9157990E+001	0,0000000E+000	0,0000000E+000	0,0000000E+000	-8,4201038E-001	0,0000000E+000	0,0000000E+000	0,0000000E+000	8,4201038E-001	6,8041512E+001	8,9157990E+001	0,000000000000000E+000
1,9970600E-001	5,3951618E+001	3,5522072E+000	5,4068432E+001	-3,7669518E+000	8,411269010955148E+002	6,9995147E-001	1,6687127E+000	2,2435241E+005	9,6836652E+002	1,000000000000000E+000	11	1,0348015E-002	1,9138736E-004	0	1,174437270673174E-001	1,8455124E-002	1,2150964E-003	1,8495081E-002	3,7669518E+000	9,6836663E+005	1,4707740E+007	1,4739584E+007	-8,6233047E+001	0,0000000E+000	0,0000000E+000	0,0000000E+000	8,6233047E+001	0,0000000E+000	0,0000000E+000	0,0000000E+000	-8,6233047E+001	0,0000000E+000	0,0000000E+000	0,0000000E+000	-3,7669518E+000	0,0000000E+000	0,0000000E+000	0,0000000E+000	3,7669518E+000	1,5188195E+001	8,6233047E+001	0,000000000000000E+000
5,9911802E-002	5,3082207E+001	2,0737598E+000	5,3122700E+001	-2,2372336E+000	8,411288330955285E+002	6,9995147E-001	1,6687127E+000	1,2810005E+006	1,9521174E+003	1,000000000000000E+000	11	1,0349140E-002	1,9481577E-004	0	1,174437270673174E-001	1,8809997E-002	7,3484919E-004	1,8824345E-002	2,2372336E+000	1,9521198E+006	4,9968520E+007	5,0006636E+007	-8,7762764E+001	0,0000000E+000	0,0000000E+000	0,0000000E+000	8,7762764E+001	0,0000000E+000	0,0000000E+000	0,0000000E+000	-8,7762764E+001	0,0000000E+000	0,0000000E+000	0,0000000E+000	-2,2372336E+000	0,0000000E+000	0,0000000E+000	0,0000000E+000	2,2372336E+000	2,5597086E+001	8,7762764E+001	0,000000000000000E+000
9,9853007E-003	5,1582802E+001	2,8776453E+000	5,1663006E+001	-3,1930451E+000	8,411307650955423E+002	6,9995147E-001	1,6687127E+000	5,5388775E+006	1,7184500E+004	1,000000000000000E+000	11	1,0349482E-002	2,0032676E-004	0	1,174438189199161E-001	1,9326160E-002	1,0781469E-003	1,9356210E-002	3,1930451E+000	1,7184508E+007	3,0803818E+008	3,0851715E+008	-8,6806953E+001	0,0000000E+000	0,0000000E+000	0,0000000E+000	8,6806953E+001	0,0000000E+000	0,0000000E+000	0,0000000E+000	-8,6806953E+001	0,0000000E+000	0,0000000E+000	0,0000000E+000	-3,1930451E+000	0,0000000E+000	0,0000000E+000	0,0000000E+000	3,1930451E+000	1,7925352E+001	8,6806953E+001	0,000000000000000E+000