File: fig_4_nife_ceo2/EIS_1_nyquist/Ni10Fe90_OCP+EIS_1_02_PEIS_C01.txt
freq/Hz	Re(Z)/Ohm	-Im(Z)/Ohm	|Z|/Ohm	Phase(Z)/deg	time/s	<Ewe>/V	<I>/mA	Cs/�F	Cp/�F	cycle number	I Range	|Ewe|/V	|I|/A	Ns	(Q-Qo)/mA.h	Re(Y)/Ohm-1	Im(Y)/Ohm-1	|Y|/Ohm-1	Phase(Y)/deg	Re(C)/nF	Im(C)/nF	|C|/nF	Phase(C)/deg	Re(M)	Im(M)	|M|	Phase(M)/deg	Re(Permittivity)	Im(Permittivity)	|Permittivity|	Phase(Permittivity)/deg	Re(Resistivity)/Ohm.cm	Im(Resistivity)/Ohm.cm	|Resistivity|/Ohm.cm	Phase(Resistivity)/deg	Re(Conductivity)/mS/cm	Im(Conductivity)/mS/cm	|Conductivity|/mS/cm
1,9999814E+005	7,8679829E+000	-3,6408779E-001	7,8764024E+000	2,6494493E+000	6,012340715412720E+002	6,9978559E-001	2,2382264E+000	-2,1856875E+000	-4,6702968E-003	1,000000000000000E+000	10	9,0945633E-003	1,1546595E-003	0	6,246277288909121E-004	1,2682579E-001	-5,8688135E-003	1,2696151E-001	-2,6494493E+000	-4,6703019E+000	1,0092570E+002	1,0103371E+002	-9,2649452E+001	0,0000000E+000	0,0000000E+000	0,0000000E+000	9,2649452E+001	0,0000000E+000	0,0000000E+000	0,0000000E+000	-9,2649452E+001	0,0000000E+000	0,0000000E+000	0,0000000E+000	2,6494493E+000	0,0000000E+000	0,0000000E+000	0,0000000E+000	-2,6494493E+000	2,1610126E+001	8,7350548E+001	6,246277288909121E-004
6,3233004E+004	7,4248443E+000	7,9148453E-001	7,4669108E+000	-6,0847220E+000	6,033450764948939E+002	6,9985956E-001	2,0652683E+000	3,1800494E+000	3,5730314E-002	1,000000000000000E+000	10	1,0343838E-002	1,3852901E-003	0	1,851942724485959E-003	1,3316970E-001	1,4195820E-002	1,3392419E-001	6,0847220E+000	3,5730324E+001	3,3518277E+002	3,3708182E+002	-8,3915276E+001	0,0000000E+000	0,0000000E+000	0,0000000E+000	8,3915276E+001	0,0000000E+000	0,0000000E+000	0,0000000E+000	-8,3915276E+001	0,0000000E+000	0,0000000E+000	0,0000000E+000	-6,0847220E+000	0,0000000E+000	0,0000000E+000	0,0000000E+000	6,0847220E+000	9,3809090E+000	8,3915276E+001	2,395153454542158E-004
1,9995176E+004	7,9544129E+000	2,0950036E+000	8,2256746E+000	-1,4755264E+001	6,054560692351515E+002	6,9986761E-001	1,9776360E+000	3,7993569E+000	2,4645442E-001	1,000000000000000E+000	10	1,0148656E-002	1,2337778E-003	0	3,009286585333337E-003	1,1756148E-001	3,0962907E-002	1,2157057E-001	1,4755264E+001	2,4645444E+002	9,3575031E+002	9,6766132E+002	-7,5244736E+001	0,0000000E+000	0,0000000E+000	0,0000000E+000	7,5244736E+001	0,0000000E+000	0,0000000E+000	0,0000000E+000	-7,5244736E+001	0,0000000E+000	0,0000000E+000	0,0000000E+000	-1,4755264E+001	0,0000000E+000	0,0000000E+000	0,0000000E+000	1,4755264E+001	3,7968493E+000	7,5244736E+001	2,283463043636553E-004
6,3238188E+003	9,8515272E+000	4,9211617E+000	1,1012285E+001	-2,6543634E+001	6,071708914232877E+002	6,9990385E-001	1,9449717E+000	5,1141453E+000	1,0213002E+000	1,000000000000000E+000	10	1,0455715E-002	9,4945921E-004	0	3,919021802323017E-003	8,1236027E-002	4,0580064E-002	9,0807676E-002	2,6543634E+001	1,0213001E+003	2,0445105E+003	2,2854053E+003	-6,3456367E+001	0,0000000E+000	0,0000000E+000	0,0000000E+000	6,3456367E+001	0,0000000E+000	0,0000000E+000	0,0000000E+000	-6,3456367E+001	0,0000000E+000	0,0000000E+000	0,0000000E+000	-2,6543634E+001	0,0000000E+000	0,0000000E+000	0,0000000E+000	2,6543634E+001	2,0018702E+000	6,3456367E+001	2,069612187331725E-004
1,9980818E+003	1,5278945E+001	8,8511772E+000	1,7657562E+001	-3,0083950E+001	6,094985146005201E+002	6,9998246E-001	1,9077727E+000	8,9992399E+000	2,2612386E+000	1,000000000000000E+000	10	1,0211739E-002	5,7832099E-004	0	5,141679074493211E-003	4,9004037E-002	2,8388310E-002	5,6632958E-002	3,0083950E+001	2,2612388E+003	3,9033613E+003	4,5110342E+003	-5,9916050E+001	0,0000000E+000	0,0000000E+000	0,0000000E+000	5,9916050E+001	0,0000000E+000	0,0000000E+000	0,0000000E+000	-5,9916050E+001	0,0000000E+000	0,0000000E+000	0,0000000E+000	-3,0083950E+001	0,0000000E+000	0,0000000E+000	0,0000000E+000	3,0083950E+001	1,7262049E+000	5,9916046E+001	2,429254049358294E-004
6,3181964E+002	2,4606775E+001	1,0446469E+001	2,6732416E+001	-2,3002987E+001	6,118217562574864E+002	6,9997680E-001	1,8678555E+000	2,4113346E+001	3,6823080E+000	1,000000000000000E+000	10	1,0128517E-002	3,7888519E-004	0	6,340684937481950E-003	3,4433268E-002	1,4618174E-002	3,7407767E-002	2,3002987E+001	3,6823088E+003	8,6737168E+003	9,4229912E+003	-6,6997009E+001	0,0000000E+000	0,0000000E+000	0,0000000E+000	6,6997009E+001	0,0000000E+000	0,0000000E+000	0,0000000E+000	-6,6997009E+001	0,0000000E+000	0,0000000E+000	0,0000000E+000	-2,3002987E+001	0,0000000E+000	0,0000000E+000	0,0000000E+000	2,3002987E+001	2,3555112E+000	6,6997009E+001	2,369777340104854E-004
1,9980818E+002	3,2939999E+001	7,5513978E+000	3,3794483E+001	-1,2911785E+001	6,143975229398784E+002	6,9994694E-001	1,8485296E+000	1,0548228E+002	5,2667484E+000	1,000000000000000E+000	11	1,0138684E-002	3,0001003E-004	0	7,633177824315317E-003	2,8842438E-002	6,6120443E-003	2,9590629E-002	1,2911785E+001	5,2667500E+003	2,2974115E+004	2,3570078E+004	-7,7088211E+001	0,0000000E+000	0,0000000E+000	0,0000000E+000	7,7088211E+001	0,0000000E+000	0,0000000E+000	0,0000000E+000	-7,7088211E+001	0,0000000E+000	0,0000000E+000	0,0000000E+000	-1,2911785E+001	0,0000000E+000	0,0000000E+000	0,0000000E+000	1,2911785E+001	4,3621063E+000	7,7088211E+001	2,354085300525178E-004
6,3160763E+001	3,7112774E+001	3,6684656E+000	3,7293640E+001	-5,6451464E+000	6,167381564110256E+002	6,9996214E-001	1,8246151E+000	6,8689178E+002	6,6464186E+000	1,000000000000000E+000	11	1,0122939E-002	2,7143874E-004	0	8,809151495023010E-003	2,6684180E-002	2,6376364E-003	2,6814224E-002	5,6451464E+000	6,6464219E+003	6,7239836E+004	6,7567523E+004	-8,4354851E+001	0,0000000E+000	0,0000000E+000	0,0000000E+000	8,4354851E+001	0,0000000E+000	0,0000000E+000	0,0000000E+000	-8,4354851E+001	0,0000000E+000	0,0000000E+000	0,0000000E+000	-5,6451464E+000	0,0000000E+000	0,0000000E+000	0,0000000E+000	5,6451464E+000	1,0116702E+001	8,4354851E+001	2,383751976320313E-004
1,9980818E+001	3,9021946E+001	1,6062320E+000	3,9054989E+001	-2,3570940E+000	6,190415090804308E+002	6,9996101E-001	1,8004074E+000	4,9590513E+003	8,3880711E+000	1,000000000000000E+000	11	1,0118933E-002	2,5909452E-004	0	9,947306475808663E-003	2,5583260E-002	1,0530652E-003	2,5604924E-002	2,3570940E+000	8,3880713E+003	2,0378056E+005	2,0395313E+005	-8,7642906E+001	0,0000000E+000	0,0000000E+000	0,0000000E+000	8,7642906E+001	0,0000000E+000	0,0000000E+000	0,0000000E+000	-8,7642906E+001	0,0000000E+000	0,0000000E+000	0,0000000E+000	-2,3570940E+000	0,0000000E+000	0,0000000E+000	0,0000000E+000	2,3570940E+000	2,4294090E+001	8,7642906E+001	2,291802853957702E-004
6,3105812E+000	3,9218037E+001	4,6261159E-001	3,9220764E+001	-6,7582333E-001	6,214437596745411E+002	6,9993109E-001	1,7767354E+000	5,4517293E+004	7,5846434E+000	1,000000000000000E+000	11	1,0121367E-002	2,5806145E-004	0	1,112200386553553E-002	2,5494926E-002	3,0073532E-004	2,5496699E-002	6,7582333E-001	7,5846855E+003	6,4299044E+005	6,4303519E+005	-8,9324173E+001	0,0000000E+000	0,0000000E+000	0,0000000E+000	8,9324173E+001	0,0000000E+000	0,0000000E+000	0,0000000E+000	-8,9324173E+001	0,0000000E+000	0,0000000E+000	0,0000000E+000	-6,7582333E-001	0,0000000E+000	0,0000000E+000	0,0000000E+000	6,7582333E-001	8,4775299E+001	8,9324173E+001	1,835265711958838E-004
1,9970603E+000	4,0269646E+001	5,6790030E-001	4,0273651E+001	-8,0795676E-001	6,251542711574657E+002	6,9996542E-001	1,7560230E+000	1,4033203E+005	2,7903522E+001	1,000000000000000E+000	11	1,0116322E-002	2,5118960E-004	0	1,291803988640393E-002	2,4827663E-002	3,5013063E-004	2,4830131E-002	8,0795676E-001	2,7903654E+004	1,9786309E+006	1,9788276E+006	-8,9192039E+001	0,0000000E+000	0,0000000E+000	0,0000000E+000	8,9192039E+001	0,0000000E+000	0,0000000E+000	0,0000000E+000	-8,9192039E+001	0,0000000E+000	0,0000000E+000	0,0000000E+000	-8,0795676E-001	0,0000000E+000	0,0000000E+000	0,0000000E+000	8,0795676E-001	7,0909714E+001	8,9192039E+001	5,273363132967824E-004
6,2907392E-001	4,6433880E+001	1,0939127E+000	4,6446762E+001	-1,3495532E+000	8,408320817748754E+002	6,9992518E-001	1,6042093E+000	2,3127877E+005	1,2828925E+002	1,000000000000000E+000	11	1,0344170E-002	2,2271025E-004	0	1,115500619986309E-001	2,1524055E-002	5,0707452E-004	2,1530027E-002	1,3495532E+000	1,2828950E+005	5,4455595E+006	5,4470705E+006	-8,8650444E+001	0,0000000E+000	0,0000000E+000	0,0000000E+000	8,8650444E+001	0,0000000E+000	0,0000000E+000	0,0000000E+000	-8,8650444E+001	0,0000000E+000	0,0000000E+000	0,0000000E+000	-1,3495532E+000	0,0000000E+000	0,0000000E+000	0,0000000E+000	1,3495532E+000	4,2447517E+001	8,8650444E+001	0,000000000000000E+000
1,9970600E-001	4,6777782E+001	4,7233419E+000	4,7015644E+001	-5,7658443E+000	8,408342955081171E+002	6,9992518E-001	1,6042093E+000	1,6872508E+005	1,7029175E+003	1,000000000000000E+000	11	1,0347442E-002	2,2008507E-004	0	1,115500619986309E-001	2,1161910E-002	2,1368037E-003	2,1269517E-002	5,7658443E+000	1,7029184E+006	1,6864904E+007	1,6950662E+007	-8,4234154E+001	0,0000000E+000	0,0000000E+000	0,0000000E+000	8,4234154E+001	0,0000000E+000	0,0000000E+000	0,0000000E+000	-8,4234154E+001	0,0000000E+000	0,0000000E+000	0,0000000E+000	-5,7658443E+000	0,0000000E+000	0,0000000E+000	0,0000000E+000	5,7658443E+000	9,9035349E+000	8,4234154E+001	0,000000000000000E+000
5,9911802E-002	4,4450878E+001	2,2966785E+000	4,4510170E+001	-2,9577160E+000	8,408365092413587E+002	6,9992518E-001	1,6042093E+000	1,1566649E+006	3,0795657E+003	1,000000000000000E+000	11	1,0348458E-002	2,3249647E-004	0	1,115500619986309E-001	2,2436846E-002	1,1592621E-003	2,2466775E-002	2,9577160E+000	3,0795673E+006	5,9603196E+007	5,9682700E+007	-8,7042282E+001	0,0000000E+000	0,0000000E+000	0,0000000E+000	8,7042282E+001	0,0000000E+000	0,0000000E+000	0,0000000E+000	-8,7042282E+001	0,0000000E+000	0,0000000E+000	0,0000000E+000	-2,9577160E+000	0,0000000E+000	0,0000000E+000	0,0000000E+000	2,9577160E+000	1,9354418E+001	8,7042282E+001	0,000000000000000E+000
9,9853007E-003	4,5645817E+001	-1,4475056E+000	4,5668762E+001	1,8163369E+000	8,408387229746004E+002	6,9992518E-001	1,6042093E+000	-1,1011304E+007	-1,1062182E+004	1,000000000000000E+000	11	1,0351152E-002	2,2665717E-004	0	1,115501464526309E-001	2,1885803E-002	-6,9403567E-004	2,1896806E-002	-1,8163369E+000	-1,1062186E+007	3,4883616E+008	3,4901152E+008	-9,1816338E+001	0,0000000E+000	0,0000000E+000	0,0000000E+000	9,1816338E+001	0,0000000E+000	0,0000000E+000	0,0000000E+000	-9,1816338E+001	0,0000000E+000	0,0000000E+000	0,0000000E+000	1,8163369E+000	0,0000000E+000	0,0000000E+000	0,0000000E+000	-1,8163369E+000	3,1534121E+001	8,8183662E+001	0,000000000000000E+000