File: fig_4_nife_ceo2/EIS_1_nyquist/Ni100_OCP+EIS_1_02_PEIS_C01.txt
freq/Hz	Re(Z)/Ohm	-Im(Z)/Ohm	|Z|/Ohm	Phase(Z)/deg	time/s	<Ewe>/V	<I>/mA	Cs/�F	Cp/�F	cycle number	I Range	|Ewe|/V	|I|/A	Ns	(Q-Qo)/mA.h	Re(Y)/Ohm-1	Im(Y)/Ohm-1	|Y|/Ohm-1	Phase(Y)/deg	Re(C)/nF	Im(C)/nF	|C|/nF	Phase(C)/deg	Re(M)	Im(M)	|M|	Phase(M)/deg	Re(Permittivity)	Im(Permittivity)	|Permittivity|	Phase(Permittivity)/deg	Re(Resistivity)/Ohm.cm	Im(Resistivity)/Ohm.cm	|Resistivity|/Ohm.cm	Phase(Resistivity)/deg	Re(Conductivity)/mS/cm	Im(Conductivity)/mS/cm	|Conductivity|/mS/cm
1,9999814E+005	6,7068796E+000	-5,6331205E-001	6,7304945E+000	4,8010149E+000	6,013900742153492E+002	6,9973588E-001	1,8735411E+000	-1,4126843E+000	-9,8957624E-003	1,000000000000000E+000	10	9,9063423E-003	1,4718595E-003	0	6,651602940619664E-004	1,4805619E-001	-1,2435267E-002	1,4857750E-001	-4,8010149E+000	-9,8957691E+000	1,1782047E+002	1,1823531E+002	-9,4801018E+001	0,0000000E+000	0,0000000E+000	0,0000000E+000	9,4801018E+001	0,0000000E+000	0,0000000E+000	0,0000000E+000	-9,4801018E+001	0,0000000E+000	0,0000000E+000	0,0000000E+000	4,8010149E+000	0,0000000E+000	0,0000000E+000	0,0000000E+000	-4,8010149E+000	1,1906154E+001	8,5198982E+001	6,651602940619664E-004
6,3233004E+004	6,2506948E+000	3,3935452E-001	6,2599001E+000	-3,1075764E+000	6,035010646089650E+002	6,9983220E-001	1,6121275E+000	7,4169044E+000	2,1796921E-002	1,000000000000000E+000	10	1,0395307E-002	1,6606187E-003	0	1,640828476367984E-003	1,5951206E-001	8,6600184E-003	1,5974696E-001	3,1075764E+000	2,1796907E+001	4,0148547E+002	4,0207672E+002	-8,6892426E+001	0,0000000E+000	0,0000000E+000	0,0000000E+000	8,6892426E+001	0,0000000E+000	0,0000000E+000	0,0000000E+000	-8,6892426E+001	0,0000000E+000	0,0000000E+000	0,0000000E+000	-3,1075764E+000	0,0000000E+000	0,0000000E+000	0,0000000E+000	3,1075764E+000	1,8419365E+001	8,6892426E+001	1,836126815029160E-004
1,9995176E+004	6,4348783E+000	9,7496378E-001	6,5083189E+000	-8,6154928E+000	6,056120711891999E+002	6,9985914E-001	1,5160192E+000	8,1640644E+000	1,8320854E-001	1,000000000000000E+000	10	1,0170775E-002	1,5627345E-003	0	2,534636395698497E-003	1,5191571E-001	2,3017110E-002	1,5364951E-001	8,6154928E+000	1,8320857E+002	1,2091986E+003	1,2229990E+003	-8,1384506E+001	0,0000000E+000	0,0000000E+000	0,0000000E+000	8,1384506E+001	0,0000000E+000	0,0000000E+000	0,0000000E+000	-8,1384506E+001	0,0000000E+000	0,0000000E+000	0,0000000E+000	-8,6154928E+000	0,0000000E+000	0,0000000E+000	0,0000000E+000	8,6154928E+000	6,6001205E+000	8,1384506E+001	1,752370825642718E-004
6,3238188E+003	6,9182754E+000	2,6320148E+000	7,4020290E+000	-2,0829004E+001	6,074628814637981E+002	6,9988382E-001	1,4790901E+000	9,5620804E+000	1,2090032E+000	1,000000000000000E+000	10	1,0586466E-002	1,4302114E-003	0	3,288195192999342E-003	1,2626886E-001	4,8038196E-002	1,3509808E-001	2,0829004E+001	1,2090031E+003	3,1778762E+003	3,4000862E+003	-6,9170998E+001	0,0000000E+000	0,0000000E+000	0,0000000E+000	6,9170998E+001	0,0000000E+000	0,0000000E+000	0,0000000E+000	-6,9170998E+001	0,0000000E+000	0,0000000E+000	0,0000000E+000	-2,0829004E+001	0,0000000E+000	0,0000000E+000	0,0000000E+000	2,0829004E+001	2,6285093E+000	6,9170998E+001	1,582605073391528E-004
1,9980818E+003	8,7135715E+000	7,0629935E+000	1,1216604E+001	-3,9027321E+001	6,097915322410845E+002	6,9993788E-001	1,4439873E+000	1,1277636E+001	4,4717021E+000	1,000000000000000E+000	10	1,0464674E-002	9,3296275E-004	0	4,220217940783129E-003	6,9258556E-002	5,6139175E-002	8,9153543E-002	3,9027321E+001	4,4717026E+003	5,5167119E+003	7,1014248E+003	-5,0972679E+001	0,0000000E+000	0,0000000E+000	0,0000000E+000	5,0972679E+001	0,0000000E+000	0,0000000E+000	0,0000000E+000	-5,0972679E+001	0,0000000E+000	0,0000000E+000	0,0000000E+000	-3,9027321E+001	0,0000000E+000	0,0000000E+000	0,0000000E+000	3,9027321E+001	1,2336938E+000	5,0972687E+001	1,833265568879951E-004
6,3181964E+002	1,6205681E+001	1,6026693E+001	2,2792082E+001	-4,4681839E+001	6,121177383515605E+002	6,9994497E-001	1,4203428E+000	1,5717486E+001	7,7714658E+000	1,000000000000000E+000	10	1,0285721E-002	4,5128484E-004	0	5,130250474711181E-003	3,1196026E-002	3,0851476E-002	4,3874886E-002	4,4681839E+001	7,7714663E+003	7,8582583E+003	1,1052055E+004	-4,5318161E+001	0,0000000E+000	0,0000000E+000	0,0000000E+000	4,5318161E+001	0,0000000E+000	0,0000000E+000	0,0000000E+000	-4,5318161E+001	0,0000000E+000	0,0000000E+000	0,0000000E+000	-4,4681839E+001	0,0000000E+000	0,0000000E+000	0,0000000E+000	4,4681839E+001	1,0111681E+000	4,5318161E+001	1,803965046241768E-004
1,9980818E+002	3,5512154E+001	2,1619358E+001	4,1575348E+001	-3,1332537E+001	6,146945287673007E+002	6,9992685E-001	1,4019012E+000	3,6843769E+001	9,9627180E+000	1,000000000000000E+000	11	1,0283783E-002	2,4735290E-004	0	6,111286826954825E-003	2,0544956E-002	1,2507514E-002	2,4052715E-002	3,1332537E+001	9,9627168E+003	1,6364851E+004	1,9158916E+004	-5,8667465E+001	0,0000000E+000	0,0000000E+000	0,0000000E+000	5,8667465E+001	0,0000000E+000	0,0000000E+000	0,0000000E+000	-5,8667465E+001	0,0000000E+000	0,0000000E+000	0,0000000E+000	-3,1332537E+001	0,0000000E+000	0,0000000E+000	0,0000000E+000	3,1332537E+001	1,6426091E+000	5,8667465E+001	1,784471382877025E-004
6,3160763E+001	5,2970242E+001	1,4040313E+001	5,4799423E+001	-1,4845461E+001	6,170361522384774E+002	6,9992620E-001	1,3753096E+000	1,7947171E+002	1,1781419E+001	1,000000000000000E+000	11	1,0253553E-002	1,8711061E-004	0	6,996721914520358E-003	1,7639244E-002	4,6754652E-003	1,8248368E-002	1,4845461E+001	1,1781418E+004	4,4448055E+004	4,5982945E+004	-7,5154541E+001	0,0000000E+000	0,0000000E+000	0,0000000E+000	7,5154541E+001	0,0000000E+000	0,0000000E+000	0,0000000E+000	-7,5154541E+001	0,0000000E+000	0,0000000E+000	0,0000000E+000	-1,4845461E+001	0,0000000E+000	0,0000000E+000	0,0000000E+000	1,4845461E+001	3,7727251E+000	7,5154541E+001	1,797038452530722E-004
1,9980818E+001	5,9668762E+001	6,9586616E+000	6,0073158E+001	-6,6518726E+000	6,193405252013035E+002	6,9991869E-001	1,3718830E+000	1,1446722E+003	1,5359308E+001	1,000000000000000E+000	11	1,0246596E-002	1,7056863E-004	0	7,858080321747422E-003	1,6534312E-002	1,9282565E-003	1,6646370E-002	6,6518726E+000	1,5359303E+004	1,3170217E+005	1,3259477E+005	-8,3348129E+001	0,0000000E+000	0,0000000E+000	0,0000000E+000	8,3348129E+001	0,0000000E+000	0,0000000E+000	0,0000000E+000	-8,3348129E+001	0,0000000E+000	0,0000000E+000	0,0000000E+000	-6,6518726E+000	0,0000000E+000	0,0000000E+000	0,0000000E+000	6,6518726E+000	8,5747471E+000	8,3348129E+001	1,748634092178869E-004
6,3105812E+000	6,0046055E+001	2,8076420E+000	6,0111660E+001	-2,6770945E+000	6,217457646488765E+002	6,9989306E-001	1,3680422E+000	8,9827441E+003	1,9596344E+001	1,000000000000000E+000	11	1,0243195E-002	1,7040280E-004	0	8,759445563331506E-003	1,6617553E-002	7,7700592E-004	1,6635709E-002	2,6770945E+000	1,9596340E+004	4,1910016E+005	4,1955806E+005	-8,7322906E+001	0,0000000E+000	0,0000000E+000	0,0000000E+000	8,7322906E+001	0,0000000E+000	0,0000000E+000	0,0000000E+000	-8,7322906E+001	0,0000000E+000	0,0000000E+000	0,0000000E+000	-2,6770945E+000	0,0000000E+000	0,0000000E+000	0,0000000E+000	2,6770945E+000	2,1386650E+001	8,7322906E+001	1,406499705082064E-004
1,9970603E+000	6,3836807E+001	2,2188213E+000	6,3875355E+001	-1,9906689E+000	6,254573182651948E+002	6,9994265E-001	1,3528383E+000	3,5917543E+004	4,3339573E+001	1,000000000000000E+000	11	1,0244043E-002	1,6037551E-004	0	1,013582540589631E-002	1,5646042E-002	5,4382061E-004	1,5655490E-002	1,9906689E+000	4,3339578E+004	1,2469051E+006	1,2476581E+006	-8,8009331E+001	0,0000000E+000	0,0000000E+000	0,0000000E+000	8,8009331E+001	0,0000000E+000	0,0000000E+000	0,0000000E+000	-8,8009331E+001	0,0000000E+000	0,0000000E+000	0,0000000E+000	-1,9906689E+000	0,0000000E+000	0,0000000E+000	0,0000000E+000	1,9906689E+000	2,8770594E+001	8,8009331E+001	4,063230957207283E-004
6,2907392E-001	7,3340454E+001	3,1890106E+000	7,3409752E+001	-2,4897833E+000	8,411358498426707E+002	6,9989973E-001	1,2333348E+000	7,9334570E+004	1,4971555E+002	1,000000000000000E+000	11	1,0343958E-002	1,4090713E-004	0	8,596990994555974E-002	1,3609309E-002	5,9176388E-004	1,3622168E-002	2,4897833E+000	1,4971561E+005	3,4431385E+006	3,4463920E+006	-8,7510216E+001	0,0000000E+000	0,0000000E+000	0,0000000E+000	8,7510216E+001	0,0000000E+000	0,0000000E+000	0,0000000E+000	-8,7510216E+001	0,0000000E+000	0,0000000E+000	0,0000000E+000	-2,4897833E+000	0,0000000E+000	0,0000000E+000	0,0000000E+000	2,4897833E+000	2,2997871E+001	8,7510216E+001	0,000000000000000E+000
1,9970600E-001	7,4801994E+001	7,0166354E+000	7,5130363E+001	-5,3588228E+000	8,411374837093026E+002	6,9989973E-001	1,2333348E+000	1,1357954E+005	9,9066528E+002	1,000000000000000E+000	11	1,0347038E-002	1,3772112E-004	0	8,596990994555974E-002	1,3252024E-002	1,2430766E-003	1,3310198E-002	5,3588228E+000	9,9066581E+005	1,0561150E+007	1,0607512E+007	-8,4641174E+001	0,0000000E+000	0,0000000E+000	0,0000000E+000	8,4641174E+001	0,0000000E+000	0,0000000E+000	0,0000000E+000	-8,4641174E+001	0,0000000E+000	0,0000000E+000	0,0000000E+000	-5,3588228E+000	0,0000000E+000	0,0000000E+000	0,0000000E+000	5,3588228E+000	1,0660665E+001	8,4641174E+001	0,000000000000000E+000
5,9911802E-002	7,5259560E+001	4,9027658E+000	7,5419083E+001	-3,7272530E+000	8,411391175759345E+002	6,9989973E-001	1,2333348E+000	5,4183444E+005	2,2897412E+003	1,000000000000000E+000	11	1,0348350E-002	1,3721129E-004	0	8,596990994555974E-002	1,3231198E-002	8,6194318E-004	1,3259244E-002	3,7272530E+000	2,2897390E+006	3,5148512E+007	3,5223016E+007	-8,6272751E+001	0,0000000E+000	0,0000000E+000	0,0000000E+000	8,6272751E+001	0,0000000E+000	0,0000000E+000	0,0000000E+000	-8,6272751E+001	0,0000000E+000	0,0000000E+000	0,0000000E+000	-3,7272530E+000	0,0000000E+000	0,0000000E+000	0,0000000E+000	3,7272530E+000	1,5350430E+001	8,6272751E+001	0,000000000000000E+000
9,9853007E-003	7,3459496E+001	-3,3634253E+000	7,3536453E+001	2,6215205E+000	8,411407514425664E+002	6,9989973E-001	1,2333348E+000	-4,7388965E+006	-9,9136924E+003	1,000000000000000E+000	11	1,0347948E-002	1,4071862E-004	0	8,596997579322797E-002	1,3584467E-002	-6,2198000E-004	1,3598698E-002	-2,6215205E+000	-9,9136930E+006	2,1652178E+008	2,1674861E+008	-9,2621521E+001	0,0000000E+000	0,0000000E+000	0,0000000E+000	9,2621521E+001	0,0000000E+000	0,0000000E+000	0,0000000E+000	-9,2621521E+001	0,0000000E+000	0,0000000E+000	0,0000000E+000	2,6215205E+000	0,0000000E+000	0,0000000E+000	0,0000000E+000	-2,6215205E+000	2,1840681E+001	8,7378479E+001	0,000000000000000E+000