File: fig_4_nife_ceo2/EIS_1_nyquist/Ni25Fe75_EIS_1.txt
freq/Hz	Re(Z)/Ohm	-Im(Z)/Ohm	|Z|/Ohm	Phase(Z)/deg	time/s	<Ewe>/V	<I>/mA	Cs/�F	Cp/�F	cycle number	I Range	|Ewe|/V	|I|/A	Ns	(Q-Qo)/mA.h	Re(Y)/Ohm-1	Im(Y)/Ohm-1	|Y|/Ohm-1	Phase(Y)/deg	Re(C)/nF	Im(C)/nF	|C|/nF	Phase(C)/deg	Re(M)	Im(M)	|M|	Phase(M)/deg	Re(Permittivity)	Im(Permittivity)	|Permittivity|	Phase(Permittivity)/deg	Re(Resistivity)/Ohm.cm	Im(Resistivity)/Ohm.cm	|Resistivity|/Ohm.cm	Phase(Resistivity)/deg	Re(Conductivity)/mS/cm	Im(Conductivity)/mS/cm	|Conductivity|/mS/cm
1,9999814E+005	7,3037591E+000	-3,5957953E-001	7,3126054E+000	2,8185167E+000	6,013900652553275E+002	6,9974059E-001	2,2717786E+000	-2,2130907E+000	-5,3511220E-003	1,000000000000000E+000	10	9,8926490E-003	1,3528214E-003	0	7,163062833729071E-004	1,3658473E-001	-6,7243553E-003	1,3675016E-001	-2,8185167E+000	-5,3511267E+000	1,0869168E+002	1,0882333E+002	-9,2818520E+001	0,0000000E+000	0,0000000E+000	0,0000000E+000	9,2818520E+001	0,0000000E+000	0,0000000E+000	0,0000000E+000	-9,2818520E+001	0,0000000E+000	0,0000000E+000	0,0000000E+000	2,8185167E+000	0,0000000E+000	0,0000000E+000	0,0000000E+000	-2,8185167E+000	2,0311943E+001	8,7181480E+001	7,163062833729071E-004
6,3233004E+004	6,9447141E+000	7,5869161E-001	6,9860334E+000	-6,2346873E+000	6,035020643956814E+002	6,9983798E-001	2,1741157E+000	3,3175006E+000	3,9127335E-002	1,000000000000000E+000	10	1,0411531E-002	1,4903351E-003	0	1,988363030257389E-003	1,4229611E-001	1,5545474E-002	1,4314274E-001	6,2346873E+000	3,9127338E+001	3,5815359E+002	3,6028455E+002	-8,3765312E+001	0,0000000E+000	0,0000000E+000	0,0000000E+000	8,3765312E+001	0,0000000E+000	0,0000000E+000	0,0000000E+000	-8,3765312E+001	0,0000000E+000	0,0000000E+000	0,0000000E+000	-6,2346873E+000	0,0000000E+000	0,0000000E+000	0,0000000E+000	6,2346873E+000	9,1535397E+000	8,3765312E+001	2,523900617656374E-004
1,9995176E+004	7,4207764E+000	2,0360701E+000	7,6950312E+000	-1,5342916E+001	6,056140779626294E+002	6,9985175E-001	2,1369798E+000	3,9093287E+000	2,7369499E-001	1,000000000000000E+000	10	1,0164138E-002	1,3208702E-003	0	3,223189950019716E-003	1,2532237E-001	3,4385234E-002	1,2995400E-001	1,5342916E+001	2,7369507E+002	9,9752429E+002	1,0343905E+003	-7,4657082E+001	0,0000000E+000	0,0000000E+000	0,0000000E+000	7,4657082E+001	0,0000000E+000	0,0000000E+000	0,0000000E+000	-7,4657082E+001	0,0000000E+000	0,0000000E+000	0,0000000E+000	-1,5342916E+001	0,0000000E+000	0,0000000E+000	0,0000000E+000	1,5342916E+001	3,6446567E+000	7,4657082E+001	2,441093532736414E-004
6,3238188E+003	9,1297388E+000	5,0326014E+000	1,0424932E+001	-2,8864946E+001	6,074838796514523E+002	6,9988936E-001	2,1240733E+000	5,0009003E+000	1,1654315E+000	1,000000000000000E+000	10	1,0149974E-002	9,7362499E-004	0	4,299740426303004E-003	8,4006302E-002	4,6306938E-002	9,5923886E-002	2,8864946E+001	1,1654314E+003	2,1142317E+003	2,4141677E+003	-6,1135056E+001	0,0000000E+000	0,0000000E+000	0,0000000E+000	6,1135056E+001	0,0000000E+000	0,0000000E+000	0,0000000E+000	-6,1135056E+001	0,0000000E+000	0,0000000E+000	0,0000000E+000	-2,8864946E+001	0,0000000E+000	0,0000000E+000	0,0000000E+000	2,8864946E+001	1,8141192E+000	6,1135056E+001	2,265682030475127E-004
1,9980818E+003	1,4807910E+001	9,7882357E+000	1,7750599E+001	-3,3465260E+001	6,098115142953611E+002	6,9994569E-001	2,1044705E+000	8,1377144E+000	2,4744875E+000	1,000000000000000E+000	10	9,8549267E-003	5,5518840E-004	0	5,645146000762030E-003	4,6996742E-002	3,1065501E-002	5,6336127E-002	3,3465260E+001	2,4744875E+003	3,7434724E+003	4,4873906E+003	-5,6534740E+001	0,0000000E+000	0,0000000E+000	0,0000000E+000	5,6534740E+001	0,0000000E+000	0,0000000E+000	0,0000000E+000	-5,6534740E+001	0,0000000E+000	0,0000000E+000	0,0000000E+000	-3,3465260E+001	0,0000000E+000	0,0000000E+000	0,0000000E+000	3,3465260E+001	1,5128273E+000	5,6534744E+001	2,675722186151483E-004
6,3181964E+002	2,5738344E+001	1,1161724E+001	2,8054348E+001	-2,3444511E+001	6,121337696589617E+002	6,9996083E-001	2,0827620E+000	2,2568138E+001	3,5723825E+000	1,000000000000000E+000	10	9,7545376E-003	3,4770145E-004	0	6,972887554605401E-003	3,2702446E-002	1,4181785E-002	3,5645097E-002	2,3444511E+001	3,5723823E+003	8,2377246E+003	8,9789766E+003	-6,6555489E+001	0,0000000E+000	0,0000000E+000	0,0000000E+000	6,6555489E+001	0,0000000E+000	0,0000000E+000	0,0000000E+000	-6,6555489E+001	0,0000000E+000	0,0000000E+000	0,0000000E+000	-2,3444511E+001	0,0000000E+000	0,0000000E+000	0,0000000E+000	2,3444511E+001	2,3059471E+000	6,6555489E+001	2,638247909984657E-004
1,9980818E+002	3,3295410E+001	6,3264923E+000	3,3891132E+001	-1,0758573E+001	6,147085430346342E+002	6,9993848E-001	2,0806711E+000	1,2590526E+002	4,3873034E+000	1,000000000000000E+000	11	9,7555434E-003	2,8784943E-004	0	8,421123765496847E-003	2,8987598E-002	5,5079609E-003	2,9506244E-002	1,0758573E+001	4,3873047E+003	2,3089740E+004	2,3502863E+004	-7,9241425E+001	0,0000000E+000	0,0000000E+000	0,0000000E+000	7,9241425E+001	0,0000000E+000	0,0000000E+000	0,0000000E+000	-7,9241425E+001	0,0000000E+000	0,0000000E+000	0,0000000E+000	-1,0758573E+001	0,0000000E+000	0,0000000E+000	0,0000000E+000	1,0758573E+001	5,2628546E+000	7,9241425E+001	2,649511228036399E-004
6,3160763E+001	3,5876896E+001	2,6356995E+000	3,5973583E+001	-4,2016916E+000	6,170491421590996E+002	6,9994372E-001	2,0642641E+000	9,5604187E+002	5,1321726E+000	1,000000000000000E+000	11	9,7451461E-003	2,7089729E-004	0	9,748713956089845E-003	2,7723463E-002	2,0367068E-003	2,7798176E-002	4,2016916E+000	5,1321719E+003	6,9858656E+004	7,0046922E+004	-8,5798309E+001	0,0000000E+000	0,0000000E+000	0,0000000E+000	8,5798309E+001	0,0000000E+000	0,0000000E+000	0,0000000E+000	-8,5798309E+001	0,0000000E+000	0,0000000E+000	0,0000000E+000	-4,2016916E+000	0,0000000E+000	0,0000000E+000	0,0000000E+000	4,2016916E+000	1,3611907E+001	8,5798309E+001	2,694374648292749E-004
1,9980818E+001	3,6379059E+001	8,5381001E-001	3,6389076E+001	-1,3444749E+000	6,193525518418901E+002	6,9993311E-001	2,0401771E+000	9,3292266E+003	5,1360121E+000	1,000000000000000E+000	11	9,7493734E-003	2,6792035E-004	0	1,104224164368807E-002	2,7473208E-002	6,4479129E-004	2,7480774E-002	1,3444749E+000	5,1360117E+003	2,1883473E+005	2,1889500E+005	-8,8655525E+001	0,0000000E+000	0,0000000E+000	0,0000000E+000	8,8655525E+001	0,0000000E+000	0,0000000E+000	0,0000000E+000	-8,8655525E+001	0,0000000E+000	0,0000000E+000	0,0000000E+000	-1,3444749E+000	0,0000000E+000	0,0000000E+000	0,0000000E+000	1,3444749E+000	4,2607910E+001	8,8655525E+001	2,606839782940996E-004
6,3105812E+000	3,7026455E+001	3,8447255E-001	3,7028450E+001	-5,9492230E-001	6,217547742759780E+002	6,9990194E-001	2,0206194E+000	6,5597219E+004	7,0720453E+000	1,000000000000000E+000	11	9,7451657E-003	2,6318050E-004	0	1,237487326535231E-002	2,7004804E-002	2,8041052E-004	2,7006261E-002	5,9492230E-001	7,0720767E+003	6,8107013E+005	6,8110681E+005	-8,9405075E+001	0,0000000E+000	0,0000000E+000	0,0000000E+000	8,9405075E+001	0,0000000E+000	0,0000000E+000	0,0000000E+000	-8,9405075E+001	0,0000000E+000	0,0000000E+000	0,0000000E+000	-5,9492230E-001	0,0000000E+000	0,0000000E+000	0,0000000E+000	5,9492230E-001	9,6304550E+001	8,9405075E+001	2,073591624567831E-004
1,9970603E+000	3,6740383E+001	7,6298326E-002	3,6740463E+001	-1,1898531E-001	6,254663200789510E+002	6,9993991E-001	2,0169461E+000	1,0445132E+006	4,5045843E+000	1,000000000000000E+000	11	9,7388551E-003	2,6507163E-004	0	1,443259431456852E-002	2,7217887E-002	5,6523073E-005	2,7217947E-002	1,1898531E-001	4,5046870E+003	2,1691188E+006	2,1691235E+006	-8,9881012E+001	0,0000000E+000	0,0000000E+000	0,0000000E+000	8,9881012E+001	0,0000000E+000	0,0000000E+000	0,0000000E+000	-8,9881012E+001	0,0000000E+000	0,0000000E+000	0,0000000E+000	-1,1898531E-001	0,0000000E+000	0,0000000E+000	0,0000000E+000	1,1898531E-001	4,8153589E+002	8,9881012E+001	6,087841558708902E-004
6,2907392E-001	3,9712536E+001	8,7153447E-001	3,9722099E+001	-1,2572159E+000	8,411450088297570E+002	6,9990122E-001	2,0080640E+000	2,9029122E+005	1,3974576E+002	1,000000000000000E+000	11	1,0344286E-002	2,6041639E-004	0	1,350654771584103E-001	2,5168842E-002	5,5235741E-004	2,5174903E-002	1,2572159E+000	1,3974592E+005	6,3676865E+006	6,3692200E+006	-8,8742783E+001	0,0000000E+000	0,0000000E+000	0,0000000E+000	8,8742783E+001	0,0000000E+000	0,0000000E+000	0,0000000E+000	-8,8742783E+001	0,0000000E+000	0,0000000E+000	0,0000000E+000	-1,2572159E+000	0,0000000E+000	0,0000000E+000	0,0000000E+000	1,2572159E+000	4,5566227E+001	8,8742783E+001	0,000000000000000E+000
1,9970600E-001	4,0396042E+001	4,3330803E+000	4,0627769E+001	-6,1224213E+000	8,411470401630359E+002	6,9990122E-001	2,0080640E+000	1,8392139E+005	2,0920872E+003	1,000000000000000E+000	11	1,0347326E-002	2,5468605E-004	0	1,350654771584103E-001	2,4473317E-002	2,6251299E-003	2,4613706E-002	6,1224213E+000	2,0920873E+006	1,9503918E+007	1,9615800E+007	-8,3877579E+001	0,0000000E+000	0,0000000E+000	0,0000000E+000	8,3877579E+001	0,0000000E+000	0,0000000E+000	0,0000000E+000	-8,3877579E+001	0,0000000E+000	0,0000000E+000	0,0000000E+000	-6,1224213E+000	0,0000000E+000	0,0000000E+000	0,0000000E+000	6,1224213E+000	9,3227081E+000	8,3877579E+001	0,000000000000000E+000
5,9911802E-002	3,8647297E+001	1,9757551E+000	3,8697765E+001	-2,9265687E+000	8,411490714963147E+002	6,9990122E-001	2,0080640E+000	1,3445429E+006	3,5048472E+003	1,000000000000000E+000	11	1,0349209E-002	2,6743687E-004	0	1,350654771584103E-001	2,5807582E-002	1,3193539E-003	2,5841285E-002	2,9265687E+000	3,5048450E+006	6,8557512E+007	6,8647040E+007	-8,7073433E+001	0,0000000E+000	0,0000000E+000	0,0000000E+000	8,7073433E+001	0,0000000E+000	0,0000000E+000	0,0000000E+000	-8,7073433E+001	0,0000000E+000	0,0000000E+000	0,0000000E+000	-2,9265687E+000	0,0000000E+000	0,0000000E+000	0,0000000E+000	2,9265687E+000	1,9560774E+001	8,7073433E+001	0,000000000000000E+000
9,9853007E-003	4,1854275E+001	-3,4015512E+000	4,1992271E+001	4,6462908E+000	8,411511028295936E+002	6,9990122E-001	2,0080640E+000	-4,6857810E+006	-3,0746613E+004	1,000000000000000E+000	11	1,0347701E-002	2,4641916E-004	0	1,350655853117336E-001	2,3735646E-002	-1,9290269E-003	2,3813905E-002	-4,6462908E+000	-3,0746630E+007	3,7832064E+008	3,7956800E+008	-9,4646294E+001	0,0000000E+000	0,0000000E+000	0,0000000E+000	9,4646294E+001	0,0000000E+000	0,0000000E+000	0,0000000E+000	-9,4646294E+001	0,0000000E+000	0,0000000E+000	0,0000000E+000	4,6462908E+000	0,0000000E+000	0,0000000E+000	0,0000000E+000	-4,6462908E+000	1,2304467E+001	8,5353706E+001	0,000000000000000E+000