File: fig_4_nife_ceo2/EIS_1_nyquist/Ni50Fe50_OCP+EIS_1_02_PEIS_C01.txt
freq/Hz	Re(Z)/Ohm	-Im(Z)/Ohm	|Z|/Ohm	Phase(Z)/deg	Re(C)/nF	Im(C)/nF	|C|/nF
1,9999814E+005	7,3081079E+000	-5,7903618E-001	7,3310113E+000	4,5301962E+000	-8,5737762E+000	1,0821098E+002	1,0855011E+002
1,5885727E+005	6,8315248E+000	-9,6977934E-002	6,8322129E+000	8,1329626E-001	-2,0814297E+000	1,4662497E+002	1,4663974E+002
1,2618765E+005	6,6710672E+000	1,8237112E-001	6,6735597E+000	-1,5659404E+000	5,1646914E+000	1,8892242E+002	1,8899301E+002
1,0022640E+005	6,6241350E+000	3,5033765E-001	6,6333928E+000	-3,0274420E+000	1,2643099E+001	2,3905385E+002	2,3938795E+002
7,9609563E+004	6,6309552E+000	4,5899534E-001	6,6468220E+000	-3,9597032E+000	2,0769924E+001	3,0005640E+002	3,0077438E+002
6,3233004E+004	6,6608143E+000	5,6932813E-001	6,6851015E+000	-4,8854399E+000	3,2064373E+001	3,7513504E+002	3,7650290E+002
5,0224539E+004	6,7068176E+000	6,8391359E-001	6,7415977E+000	-5,8224902E+000	4,7684746E+001	4,6762207E+002	4,7004706E+002
3,9897566E+004	6,7570691E+000	8,0773938E-001	6,8051763E+000	-6,8167849E+000	6,9577110E+001	5,8204065E+002	5,8618451E+002
3,1686090E+004	6,8068986E+000	9,7566068E-001	6,8764658E+000	-8,1568813E+000	1,0363818E+002	7,2305304E+002	7,3044275E+002
2,5172580E+004	6,8876224E+000	1,1407779E+000	6,9814553E+000	-9,4043684E+000	1,4797948E+002	8,9344910E+002	9,0562091E+002
1,9995176E+004	7,0081582E+000	1,3831205E+000	7,1433396E+000	-1,1164340E+001	2,1575069E+002	1,0931913E+003	1,1142781E+003
1,5884798E+004	7,1448984E+000	1,6629466E+000	7,3358684E+000	-1,3102104E+001	3,0960907E+002	1,3302445E+003	1,3657994E+003
1,2618766E+004	7,3146572E+000	1,9995682E+000	7,5830393E+000	-1,5289100E+001	4,3858411E+002	1,6043926E+003	1,6632593E+003
1,0020785E+004	7,5482192E+000	2,4018831E+000	7,9211526E+000	-1,7651342E+001	6,0798584E+002	1,9106719E+003	2,0050720E+003
7,9597607E+003	7,8260570E+000	2,8589053E+000	8,3318968E+000	-2,0067551E+001	8,2344037E+002	2,2541113E+003	2,3998066E+003
6,3238188E+003	8,2023935E+000	3,3883929E+000	8,8747091E+000	-2,2445425E+001	1,0827451E+003	2,6210364E+003	2,8358718E+003
5,0216069E+003	8,6936693E+000	3,9835598E+000	9,5628777E+000	-2,4617908E+001	1,3806116E+003	3,0130293E+003	3,3142773E+003
3,9861731E+003	9,3167019E+000	4,5961766E+000	1,0388733E+001	-2,6258350E+001	1,7003391E+003	3,4466802E+003	3,8432744E+003
3,1669595E+003	1,0079370E+001	5,2172980E+000	1,1349622E+001	-2,7367052E+001	2,0354503E+003	3,9323149E+003	4,4278843E+003
2,5158047E+003	1,1047101E+001	5,8228812E+000	1,2487769E+001	-2,7793530E+001	2,3621716E+003	4,4814834E+003	5,0659204E+003
1,9980818E+003	1,2228884E+001	6,3827596E+000	1,3794391E+001	-2,7561916E+001	2,6718391E+003	5,1190410E+003	5,7743662E+003
1,5884750E+003	1,3557363E+001	6,7759991E+000	1,5156393E+001	-2,6555983E+001	2,9554348E+003	5,9132090E+003	6,6106455E+003
1,2604036E+003	1,4995391E+001	6,9895425E+000	1,6544348E+001	-2,4990826E+001	3,2244824E+003	6,9178154E+003	7,6323950E+003
1,0016024E+003	1,6491667E+001	6,9446115E+000	1,7894209E+001	-2,2835873E+001	3,4462578E+003	8,1839751E+003	8,8799854E+003
7,9525409E+002	1,7923429E+001	6,6924672E+000	1,9132132E+001	-2,0475235E+001	3,6590957E+003	9,7996064E+003	1,0460462E+004
6,3181964E+002	1,9143044E+001	6,1953120E+000	2,0120586E+001	-1,7933270E+001	3,8548635E+003	1,1911232E+004	1,2519482E+004
5,0208865E+002	2,0252995E+001	5,6167068E+000	2,1017403E+001	-1,5500143E+001	4,0305422E+003	1,4533522E+004	1,5082061E+004
3,9859698E+002	2,1102367E+001	4,8749452E+000	2,1658140E+001	-1,3007938E+001	4,1496689E+003	1,7962842E+004	1,8435928E+004
3,1672299E+002	2,1792181E+001	4,1743970E+000	2,2188393E+001	-1,0843923E+001	4,2607173E+003	2,2242805E+004	2,2647209E+004
2,5169135E+002	2,2371044E+001	3,5784328E+000	2,2655436E+001	-9,0879440E+000	4,4085918E+003	2,7560891E+004	2,7911260E+004
1,9980818E+002	2,2805532E+001	3,0147920E+000	2,3003941E+001	-7,5305877E+000	4,5379497E+003	3,4327535E+004	3,4626184E+004
1,5862943E+002	2,3114477E+001	2,4453425E+000	2,3243467E+001	-6,0390110E+000	4,5412363E+003	4,2925824E+004	4,3165371E+004
1,2600809E+002	2,3500017E+001	2,0268509E+000	2,3587261E+001	-4,9294996E+000	4,6013813E+003	5,3350051E+004	5,3548113E+004
1,0016024E+002	2,3600811E+001	1,6971754E+000	2,3661757E+001	-4,1131587E+000	4,8167886E+003	6,6981945E+004	6,7154914E+004
7,9516548E+001	2,3712099E+001	1,3704259E+000	2,3751667E+001	-3,3076944E+000	4,8621675E+003	8,4128758E+004	8,4269141E+004
6,3160763E+001	2,3944706E+001	1,1028978E+000	2,3970093E+001	-2,6371906E+000	4,8369189E+003	1,0501295E+005	1,0512429E+005
5,0208866E+001	2,3971237E+001	8,6931378E-001	2,3986996E+001	-2,0769136E+000	4,7892139E+003	1,3206219E+005	1,3214900E+005
3,9859695E+001	2,4119259E+001	7,4946672E-001	2,4130899E+001	-1,7798004E+000	5,1391519E+003	1,6538764E+005	1,6546747E+005
3,1672298E+001	2,4122822E+001	5,8864164E-001	2,4130003E+001	-1,3978460E+000	5,0801401E+003	2,0818716E+005	2,0824913E+005
2,5136747E+001	2,4047644E+001	4,9966073E-001	2,4052834E+001	-1,1903175E+000	5,4683076E+003	2,6317891E+005	2,6323572E+005
1,9980818E+001	2,3971792E+001	4,0669265E-001	2,3975243E+001	-9,7195643E-001	5,6356792E+003	3,3218603E+005	3,3223384E+005
1,5857577E+001	2,4075632E+001	2,1317773E-001	2,4076576E+001	-5,0731230E-001	3,6909043E+003	4,1684206E+005	4,1685841E+005
1,2600809E+001	2,4038095E+001	3,7570605E-001	2,4041031E+001	-8,9543778E-001	8,2104014E+003	5,2530988E+005	5,2537406E+005
1,0016025E+001	2,3945875E+001	2,9638880E-001	2,3947710E+001	-7,0913929E-001	8,2121553E+003	6,6347950E+005	6,6353031E+005
7,9557004E+000	2,4122551E+001	6,0766824E-003	2,4122551E+001	-1,4433310E-002	2,0893298E+002	8,2931294E+005	8,2931294E+005
6,3105812E+000	2,4073912E+001	1,6703527E-001	2,4074492E+001	-3,9753664E-001	7,2685098E+003	1,0475704E+006	1,0475956E+006
5,0144420E+000	2,4343628E+001	-4,0786009E-002	2,4343662E+001	9,5994897E-002	-2,1843816E+003	1,3038000E+006	1,3038019E+006
3,9859698E+000	2,4308094E+001	2,3703916E-001	2,4309250E+001	-5,5869925E-001	1,6016372E+004	1,6424566E+006	1,6425348E+006
3,1655185E+000	2,4255270E+001	-2,0553270E-002	2,4255280E+001	4,8550904E-002	-1,7565745E+003	2,0728546E+006	2,0728554E+006
2,5136747E+000	2,3848848E+001	-3,3082642E-002	2,3848871E+001	7,9479493E-002	-3,6829419E+003	2,6548673E+006	2,6548698E+006
1,9970603E+000	2,4444178E+001	-5,4939319E-003	2,4444178E+001	1,2877468E-002	-7,3281342E+002	3,2602698E+006	3,2602698E+006
1,5846856E+000	2,4663380E+001	-3,3327594E-001	2,4665632E+001	7,7419001E-001	-5,5017145E+004	4,0714125E+006	4,0717843E+006
1,2596742E+000	2,4080465E+001	-9,3065806E-002	2,4080645E+001	2,2143473E-001	-2,0277639E+004	5,2467520E+006	5,2467910E+006
1,0000639E+000	2,4191042E+001	-4,6809793E-001	2,4195570E+001	1,1085380E+000	-1,2724963E+005	6,5762035E+006	6,5774345E+006
7,9882401E-001	2,6229856E+001	-5,9335095E-001	2,6236567E+001	1,2958785E+000	-1,7173772E+005	7,5919085E+006	7,5938505E+006
6,2907392E-001	2,7099930E+001	5,2258575E-001	2,7104967E+001	-1,1047353E+000	1,7996111E+005	9,3323030E+006	9,3340380E+006
4,9926502E-001	2,7682182E+001	-1,0567732E+000	2,7702347E+001	2,1862171E+000	-4,3897316E+005	1,1498898E+007	1,1507274E+007
3,9941201E-001	2,7387238E+001	-5,7960469E-001	2,7393370E+001	1,2123876E+000	-3,0777963E+005	1,4543079E+007	1,4546335E+007
3,1952962E-001	2,6299309E+001	1,2103364E+000	2,6327145E+001	-2,6349845E+000	8,6977713E+005	1,8899304E+007	1,8919308E+007
2,4963251E-001	2,5412399E+001	-4,3124989E-001	2,5416058E+001	9,7221935E-001	-4,2563025E+005	2,5081196E+007	2,5084808E+007
1,9970600E-001	2,7363132E+001	2,8256669E+000	2,7508642E+001	-5,8957782E+000	2,9758528E+006	2,8817516E+007	2,8970760E+007
1,5976481E-001	2,4185577E+001	-2,1506059E+000	2,4281006E+001	5,0814338E+000	-3,6338475E+006	4,0866000E+007	4,1027244E+007
1,2980890E-001	2,5374617E+001	-1,3149587E+000	2,5408665E+001	2,9665177E+000	-2,4972593E+006	4,8189392E+007	4,8254056E+007
9,9853002E-002	2,8209705E+001	1,7223150E+000	2,8262234E+001	-3,4937990E+000	3,4368333E+006	5,6291732E+007	5,6396552E+007
7,9882406E-002	2,3873308E+001	1,3512579E+000	2,3911518E+001	-3,2395537E+000	4,7086155E+006	8,3189264E+007	8,3322416E+007
5,9911802E-002	2,5791849E+001	5,2281755E-001	2,5797148E+001	-1,1612636E+000	2,0869599E+006	1,0295486E+008	1,0297601E+008
4,9926501E-002	2,3425940E+001	5,1251955E-002	2,3425995E+001	-1,2535319E-001	2,9771153E+005	1,3607864E+008	1,3607896E+008
3,9941203E-002	2,6834696E+001	1,5757765E-001	2,6835159E+001	-3,3644617E-001	8,7194381E+005	1,4848662E+008	1,4848918E+008
2,9955901E-002	2,5041334E+001	9,0609705E-001	2,5057722E+001	-2,0722897E+000	7,6670635E+006	2,1189077E+008	2,1202944E+008
1,9970601E-002	2,5703150E+001	1,0423907E+000	2,5724277E+001	-2,3223565E+000	1,2553744E+007	3,0954867E+008	3,0980314E+008
9,9853007E-003	2,8194510E+001	4,0693724E-001	2,8197447E+001	-8,2690454E-001	8,1576815E+006	5,6520237E+008	5,6526125E+008