File: fig_4_nife_ceo2/Activity_2_CV/Fe100_Activity_2_CV_2_02_CV_C01.txt
Ewe/V	<I>/mA	cycle number
-3,2509532E-005	-8,955612778663635E-001	1,000000000000000E+000
1,2705079E-002	-8,568217773956624E-003	1,000000000000000E+000
2,5834482E-002	-4,539138565878439E-003	1,000000000000000E+000
3,8851332E-002	-2,943951863047931E-003	1,000000000000000E+000
5,1873486E-002	-2,131397318888350E-003	1,000000000000000E+000
6,4847864E-002	-1,607094771736759E-003	1,000000000000000E+000
7,7850908E-002	-1,301092948342544E-003	1,000000000000000E+000
9,0804055E-002	-1,077812604020137E-003	1,000000000000000E+000
1,0381240E-001	-8,710427400852594E-004	1,000000000000000E+000
1,1680376E-001	-7,248513695201058E-004	1,000000000000000E+000
1,2985672E-001	-5,255888649405172E-004	1,000000000000000E+000
1,4284809E-001	-3,620178167529978E-004	1,000000000000000E+000
1,5587981E-001	-2,134124320284283E-004	1,000000000000000E+000
1,6879579E-001	-2,961559325838359E-005	1,000000000000000E+000
1,8182430E-001	1,130409972558870E-004	1,000000000000000E+000
1,9493139E-001	2,088614416675066E-004	1,000000000000000E+000
2,0788877E-001	2,347313889736139E-004	1,000000000000000E+000
2,2084831E-001	1,985327946350242E-004	1,000000000000000E+000
2,3384391E-001	1,049217460805604E-004	1,000000000000000E+000
2,4681830E-001	3,435094921047282E-005	1,000000000000000E+000
2,5980330E-001	-2,208782145988878E-005	1,000000000000000E+000
2,7279148E-001	-3,450926572841101E-005	1,000000000000000E+000
2,8572017E-001	-5,032617124560283E-005	1,000000000000000E+000
2,9873705E-001	-8,333011504453147E-005	1,000000000000000E+000
3,1172946E-001	-5,922977121488758E-005	1,000000000000000E+000
3,2467198E-001	-5,224137695777203E-005	1,000000000000000E+000
3,3773556E-001	-3,561756896631405E-005	1,000000000000000E+000
3,5070950E-001	1,674757456988555E-006	1,000000000000000E+000
3,6373737E-001	-2,027294255215973E-005	1,000000000000000E+000
3,7665018E-001	1,037846865460803E-005	1,000000000000000E+000
3,8969356E-001	3,516599850800486E-005	1,000000000000000E+000
4,0270406E-001	8,840519146614435E-005	1,000000000000000E+000
4,1576016E-001	1,688762580017570E-004	1,000000000000000E+000
4,2873457E-001	2,597050968779066E-004	1,000000000000000E+000
4,4169620E-001	4,051501115107073E-004	1,000000000000000E+000
4,5474917E-001	6,674299818690832E-004	1,000000000000000E+000
4,6775746E-001	1,080972006691442E-003	1,000000000000000E+000
4,8072502E-001	1,712247683178864E-003	1,000000000000000E+000
4,9379861E-001	2,982812628660514E-003	1,000000000000000E+000
5,0684309E-001	6,071189113108874E-003	1,000000000000000E+000
5,1995754E-001	1,318488312729948E-002	1,000000000000000E+000
5,3295112E-001	2,211763961290791E-002	1,000000000000000E+000
5,4592216E-001	3,070794424623866E-002	1,000000000000000E+000
5,5888498E-001	4,142927506076932E-002	1,000000000000000E+000
5,7192838E-001	6,752465516930684E-002	1,000000000000000E+000
5,8500689E-001	1,150217632976387E-001	1,000000000000000E+000
5,9802788E-001	1,816226314054274E-001	1,000000000000000E+000
6,1098665E-001	2,695168539792200E-001	1,000000000000000E+000
6,2401915E-001	3,778407566118447E-001	1,000000000000000E+000
6,3703179E-001	5,076556116460775E-001	1,000000000000000E+000
6,4999336E-001	6,607243420045121E-001	1,000000000000000E+000
6,6306549E-001	8,288645521144193E-001	1,000000000000000E+000
6,7609954E-001	1,026331801625311E+000	1,000000000000000E+000
6,8921703E-001	1,238684208037295E+000	1,000000000000000E+000
7,0218402E-001	1,475506390539962E+000	1,000000000000000E+000
7,1521461E-001	1,725450667698365E+000	1,000000000000000E+000
7,2821236E-001	1,992711721313384E+000	1,000000000000000E+000
7,4123508E-001	2,277615560537056E+000	1,000000000000000E+000
7,5423968E-001	2,565116877036158E+000	1,000000000000000E+000
7,6725543E-001	2,863455744253265E+000	1,000000000000000E+000
7,8019583E-001	3,167291202546544E+000	1,000000000000000E+000
7,9321265E-001	3,495445053897740E+000	1,000000000000000E+000
8,0623376E-001	3,814174021182424E+000	1,000000000000000E+000
8,1919223E-001	4,157397119298807E+000	1,000000000000000E+000
8,3215910E-001	4,505557438616307E+000	1,000000000000000E+000
8,4522277E-001	4,859894248093076E+000	1,000000000000000E+000
8,5820663E-001	5,222669080507988E+000	1,000000000000000E+000
8,7117463E-001	5,567963241010418E+000	1,000000000000000E+000
8,8418841E-001	5,950406076990559E+000	1,000000000000000E+000
8,9719677E-001	6,320756239347702E+000	1,000000000000000E+000
9,1020507E-001	6,709034138120501E+000	1,000000000000000E+000
9,2318904E-001	7,073347366112941E+000	1,000000000000000E+000
9,3626469E-001	7,455226728829473E+000	1,000000000000000E+000
9,4914949E-001	7,827819569919114E+000	1,000000000000000E+000
9,6223313E-001	8,178700763554787E+000	1,000000000000000E+000
9,7522664E-001	8,572964724634858E+000	1,000000000000000E+000
9,8817557E-001	8,925654233380527E+000	1,000000000000000E+000
9,9996632E-001	9,236280459983677E+000	1,000000000000000E+000
9,8734623E-001	8,701502831479619E+000	1,000000000000000E+000
9,7429007E-001	8,206757672114151E+000	1,000000000000000E+000
9,6134025E-001	7,736104671917218E+000	1,000000000000000E+000
9,4831371E-001	7,315035480558208E+000	1,000000000000000E+000
9,3531179E-001	6,874133892205279E+000	1,000000000000000E+000
9,2233539E-001	6,489767004235240E+000	1,000000000000000E+000
9,0931314E-001	6,111216039918443E+000	1,000000000000000E+000
8,9632487E-001	5,713652310086218E+000	1,000000000000000E+000
8,8326991E-001	5,364424818024332E+000	1,000000000000000E+000
8,7028170E-001	5,001616065790941E+000	1,000000000000000E+000
8,5730630E-001	4,661686864603407E+000	1,000000000000000E+000
8,4427035E-001	4,336797816243838E+000	1,000000000000000E+000
8,3129805E-001	4,002615945679802E+000	1,000000000000000E+000
8,1828761E-001	3,695965873782868E+000	1,000000000000000E+000
8,0529833E-001	3,397418499203260E+000	1,000000000000000E+000
7,9232180E-001	3,111331905755730E+000	1,000000000000000E+000
7,7931136E-001	2,830928921378522E+000	1,000000000000000E+000
7,6633906E-001	2,557485851841442E+000	1,000000000000000E+000
7,5336158E-001	2,287562688107251E+000	1,000000000000000E+000
7,4027950E-001	2,033105771680432E+000	1,000000000000000E+000
7,2730339E-001	1,793647720362337E+000	1,000000000000000E+000
7,1431100E-001	1,564754738829303E+000	1,000000000000000E+000
7,0132285E-001	1,351693648405693E+000	1,000000000000000E+000
6,8832397E-001	1,144190055983410E+000	1,000000000000000E+000
6,7533904E-001	9,522343273017686E-001	1,000000000000000E+000
6,6234976E-001	7,779000202054451E-001	1,000000000000000E+000
6,4928299E-001	6,265163955124522E-001	1,000000000000000E+000
6,3629484E-001	4,890110694007115E-001	1,000000000000000E+000
6,2311339E-001	3,643523193705751E-001	1,000000000000000E+000
6,1007851E-001	2,635658417686884E-001	1,000000000000000E+000
5,9711480E-001	1,797762461547272E-001	1,000000000000000E+000
5,8417964E-001	1,137867713444222E-001	1,000000000000000E+000
5,7110548E-001	6,688740682131411E-002	1,000000000000000E+000
5,5790281E-001	3,531882174465126E-002	1,000000000000000E+000
5,4500699E-001	1,673253426814558E-002	1,000000000000000E+000
5,3192329E-001	6,899068811924175E-003	1,000000000000000E+000
5,1871407E-001	2,197823066037490E-003	1,000000000000000E+000
5,0578016E-001	1,880205678742161E-004	1,000000000000000E+000
4,9270922E-001	-8,148703252660525E-004	1,000000000000000E+000
4,7977409E-001	-1,573227888785989E-003	1,000000000000000E+000
4,6672755E-001	-2,665744450603531E-003	1,000000000000000E+000
4,5373213E-001	-5,570625496611470E-003	1,000000000000000E+000
4,4063336E-001	-1,389674347407732E-002	1,000000000000000E+000
4,2768335E-001	-1,900694096556499E-002	1,000000000000000E+000
4,1466439E-001	-1,113118717257912E-002	1,000000000000000E+000
4,0161461E-001	-5,156820235088108E-003	1,000000000000000E+000
3,8848504E-001	-3,062753556728387E-003	1,000000000000000E+000
3,7548754E-001	-2,268366052367480E-003	1,000000000000000E+000
3,6243242E-001	-1,861995240964330E-003	1,000000000000000E+000
3,4944743E-001	-1,657406532314127E-003	1,000000000000000E+000
3,3646032E-001	-1,538918793111429E-003	1,000000000000000E+000
3,2340181E-001	-1,459404571439818E-003	1,000000000000000E+000
3,1042346E-001	-1,351284577385595E-003	1,000000000000000E+000
2,9750213E-001	-1,236818940827495E-003	1,000000000000000E+000
2,8446615E-001	-1,067618168091278E-003	1,000000000000000E+000
2,7148649E-001	-8,750056295369624E-004	1,000000000000000E+000
2,5847992E-001	-6,627722877891986E-004	1,000000000000000E+000
2,4555048E-001	-4,861679734794958E-004	1,000000000000000E+000
2,3256125E-001	-3,268176174560694E-004	1,000000000000000E+000
2,1951784E-001	-2,614516745285136E-004	1,000000000000000E+000
2,0655303E-001	-3,026758454008236E-004	1,000000000000000E+000
1,9355175E-001	-4,426914259578231E-004	1,000000000000000E+000
1,8050766E-001	-6,240916525380568E-004	1,000000000000000E+000
1,6749187E-001	-8,119151727499704E-004	1,000000000000000E+000
1,5441553E-001	-9,772862669743376E-004	1,000000000000000E+000
1,4142738E-001	-1,057094579907766E-003	1,000000000000000E+000
1,2848485E-001	-1,094539666155470E-003	1,000000000000000E+000
1,1543402E-001	-1,057461979742219E-003	1,000000000000000E+000
1,0250317E-001	-9,763054592013438E-004	1,000000000000000E+000
8,9499064E-002	-8,312293540255061E-004	1,000000000000000E+000
7,6457798E-002	-6,940484748397736E-004	1,000000000000000E+000
6,3508913E-002	-5,273812719363436E-004	1,000000000000000E+000
5,0562140E-002	-4,116886879788869E-004	1,000000000000000E+000
3,7524056E-002	-3,900203146102118E-004	1,000000000000000E+000
2,4536937E-002	-4,829396981566427E-004	1,000000000000000E+000
1,1515843E-002	-7,276696339881114E-004	1,000000000000000E+000
-2,0452439E-004	-9,228381275213065E-004	1,000000000000000E+000