File: fig_4_nife_ceo2/Activity_2_CV/Ni10Fe90_Activity_2_CV2_02_CV_C01.txt
Ewe/V	<I>/mA	cycle number
2,6746525E-004	-4,480707943439484E-001	1,000000000000000E+000
1,2982756E-002	-8,272888908524886E-003	1,000000000000000E+000
2,6150385E-002	-4,125567123233424E-003	1,000000000000000E+000
3,9175730E-002	-2,633705111223128E-003	1,000000000000000E+000
5,2213814E-002	-1,808357860585082E-003	1,000000000000000E+000
6,5209426E-002	-1,308278751103792E-003	1,000000000000000E+000
7,8165747E-002	-9,445544764649129E-004	1,000000000000000E+000
9,1175169E-002	-7,057835144083403E-004	1,000000000000000E+000
1,0413150E-001	-5,276955975305093E-004	1,000000000000000E+000
1,1710692E-001	-4,072079996551257E-004	1,000000000000000E+000
1,3016945E-001	-2,944180814592632E-004	1,000000000000000E+000
1,4315550E-001	-1,800180106614835E-004	1,000000000000000E+000
1,5613836E-001	-7,625738840317175E-005	1,000000000000000E+000
1,6918175E-001	3,503150571373068E-005	1,000000000000000E+000
1,8214977E-001	1,352977748601170E-004	1,000000000000000E+000
1,9511989E-001	2,320947732212314E-004	1,000000000000000E+000
2,0819619E-001	3,119433602425648E-004	1,000000000000000E+000
2,2111535E-001	3,841125500087120E-004	1,000000000000000E+000
2,3411947E-001	4,474255453117155E-004	1,000000000000000E+000
2,4717905E-001	5,047009951456511E-004	1,000000000000000E+000
2,6016590E-001	5,462237759006918E-004	1,000000000000000E+000
2,7311161E-001	5,691405308105944E-004	1,000000000000000E+000
2,8612739E-001	6,020630733766649E-004	1,000000000000000E+000
2,9912832E-001	6,328951148466405E-004	1,000000000000000E+000
3,1213650E-001	6,573580961143160E-004	1,000000000000000E+000
3,2510468E-001	7,012952367789742E-004	1,000000000000000E+000
3,3812472E-001	7,329061423380703E-004	1,000000000000000E+000
3,5119894E-001	7,806115568128602E-004	1,000000000000000E+000
3,6409259E-001	8,251580323565546E-004	1,000000000000000E+000
3,7713489E-001	8,589575043024822E-004	1,000000000000000E+000
3,9014432E-001	8,965655542521917E-004	1,000000000000000E+000
4,0314737E-001	9,352902762284065E-004	1,000000000000000E+000
4,1615045E-001	9,874537030216783E-004	1,000000000000000E+000
4,2916635E-001	1,093984954340788E-003	1,000000000000000E+000
4,4210127E-001	1,339411706444036E-003	1,000000000000000E+000
4,5510539E-001	1,693544857188912E-003	1,000000000000000E+000
4,6808612E-001	2,128071907911422E-003	1,000000000000000E+000
4,8107538E-001	2,976339831273808E-003	1,000000000000000E+000
4,9405503E-001	5,315485281734866E-003	1,000000000000000E+000
5,0720465E-001	1,228587661917074E-002	1,000000000000000E+000
5,2015245E-001	2,369905439524352E-002	1,000000000000000E+000
5,3323090E-001	3,023444053050683E-002	1,000000000000000E+000
5,4621488E-001	3,170826396130877E-002	1,000000000000000E+000
5,5921686E-001	3,432815583066945E-002	1,000000000000000E+000
5,7219648E-001	5,029807286231411E-002	1,000000000000000E+000
5,8521444E-001	8,535445270512865E-002	1,000000000000000E+000
5,9830666E-001	1,426344397604522E-001	1,000000000000000E+000
6,1127365E-001	2,256769380929585E-001	1,000000000000000E+000
6,2429678E-001	3,391714034973727E-001	1,000000000000000E+000
6,3726163E-001	4,892382848450332E-001	1,000000000000000E+000
6,5035498E-001	6,791897369105198E-001	1,000000000000000E+000
6,6334629E-001	9,080867634118954E-001	1,000000000000000E+000
6,7649138E-001	1,184243293021360E+000	1,000000000000000E+000
6,8946815E-001	1,505040249899196E+000	1,000000000000000E+000
7,0251369E-001	1,854088383027754E+000	1,000000000000000E+000
7,1544564E-001	2,244231057308959E+000	1,000000000000000E+000
7,2852623E-001	2,661901048403621E+000	1,000000000000000E+000
7,4153239E-001	3,115988128360286E+000	1,000000000000000E+000
7,5449830E-001	3,581831584002430E+000	1,000000000000000E+000
7,6747048E-001	4,078837307605077E+000	1,000000000000000E+000
7,8050750E-001	4,592203138941048E+000	1,000000000000000E+000
7,9347235E-001	5,111948449306350E+000	1,000000000000000E+000
8,0651468E-001	5,638011778090288E+000	1,000000000000000E+000
8,1943697E-001	6,194986564299398E+000	1,000000000000000E+000
8,3245498E-001	6,774217642421348E+000	1,000000000000000E+000
8,4552276E-001	7,335886210405917E+000	1,000000000000000E+000
8,5851723E-001	7,920629237109040E+000	1,000000000000000E+000
8,7150651E-001	8,514730516812705E+000	1,000000000000000E+000
8,8445330E-001	9,117590750561263E+000	1,000000000000000E+000
8,9752847E-001	9,722640961408622E+000	1,000000000000000E+000
9,1044807E-001	1,035764954711163E+001	1,000000000000000E+000
9,2368233E-001	1,099157912390574E+001	1,000000000000000E+000
9,3667042E-001	1,165078733391771E+001	1,000000000000000E+000
9,4966817E-001	1,230051708809374E+001	1,000000000000000E+000
9,6271783E-001	1,292624749402071E+001	1,000000000000000E+000
9,7568578E-001	1,355559907051125E+001	1,000000000000000E+000
9,8865390E-001	1,419091197192807E+001	1,000000000000000E+000
9,9921370E-001	1,460870810363298E+001	1,000000000000000E+000
9,8627651E-001	1,373652684648025E+001	1,000000000000000E+000
9,7322035E-001	1,291799546058488E+001	1,000000000000000E+000
9,6030658E-001	1,215738557404129E+001	1,000000000000000E+000
9,4728559E-001	1,141719866862312E+001	1,000000000000000E+000
9,3428236E-001	1,069629297295668E+001	1,000000000000000E+000
9,2123055E-001	1,004085510036569E+001	1,000000000000000E+000
9,0819246E-001	9,395229380687631E+000	1,000000000000000E+000
8,9527428E-001	8,761361154096193E+000	1,000000000000000E+000
8,8224262E-001	8,141063716744066E+000	1,000000000000000E+000
8,6923742E-001	7,550776950964316E+000	1,000000000000000E+000
8,5632461E-001	6,993362195502613E+000	1,000000000000000E+000
8,4321326E-001	6,457276255027509E+000	1,000000000000000E+000
8,3020377E-001	5,927589993626931E+000	1,000000000000000E+000
8,1721354E-001	5,418103363576137E+000	1,000000000000000E+000
8,0424339E-001	4,925398727832466E+000	1,000000000000000E+000
7,9118413E-001	4,443118496715613E+000	1,000000000000000E+000
7,7819169E-001	3,979502087243574E+000	1,000000000000000E+000
7,6524490E-001	3,537182014781870E+000	1,000000000000000E+000
7,5216544E-001	3,107184102137879E+000	1,000000000000000E+000
7,3921126E-001	2,701327800480415E+000	1,000000000000000E+000
7,2621346E-001	2,321117152668993E+000	1,000000000000000E+000
7,1321344E-001	1,957628931256608E+000	1,000000000000000E+000
7,0021474E-001	1,621654580881536E+000	1,000000000000000E+000
6,8719798E-001	1,321647525796680E+000	1,000000000000000E+000
6,7415035E-001	1,045720808436068E+000	1,000000000000000E+000
6,6118020E-001	8,034231457056791E-001	1,000000000000000E+000
6,4816225E-001	6,003975188616586E-001	1,000000000000000E+000
6,3509661E-001	4,338907133576706E-001	1,000000000000000E+000
6,2212962E-001	2,982473140645800E-001	1,000000000000000E+000
6,0910970E-001	1,950441661265492E-001	1,000000000000000E+000
5,9609491E-001	1,203141782956534E-001	1,000000000000000E+000
5,8308971E-001	6,974213319839051E-002	1,000000000000000E+000
5,6995612E-001	3,793710942513195E-002	1,000000000000000E+000
5,5696899E-001	1,991164360484199E-002	1,000000000000000E+000
5,4404879E-001	1,038076265560897E-002	1,000000000000000E+000
5,3097403E-001	5,689978235070080E-003	1,000000000000000E+000
5,1773465E-001	3,297447228525475E-003	1,000000000000000E+000
5,0475925E-001	2,040390814739664E-003	1,000000000000000E+000
4,9179769E-001	1,110274243454491E-003	1,000000000000000E+000
4,7881800E-001	4,888303936381624E-005	1,000000000000000E+000
4,6581608E-001	-1,801999217682537E-003	1,000000000000000E+000
4,5282564E-001	-6,664674467438333E-003	1,000000000000000E+000
4,3972388E-001	-1,528851914324095E-002	1,000000000000000E+000
4,2670068E-001	-1,873138176526464E-002	1,000000000000000E+000
4,1373050E-001	-1,131484933332654E-002	1,000000000000000E+000
4,0066272E-001	-5,054164695808988E-003	1,000000000000000E+000
3,8746646E-001	-3,140888757252158E-003	1,000000000000000E+000
3,7449312E-001	-2,498541202293460E-003	1,000000000000000E+000
3,6146033E-001	-2,197672184409548E-003	1,000000000000000E+000
3,4843287E-001	-2,000733346848194E-003	1,000000000000000E+000
3,3546278E-001	-1,839930885095887E-003	1,000000000000000E+000
3,2245973E-001	-1,673852680610010E-003	1,000000000000000E+000
3,0956176E-001	-1,506466680463940E-003	1,000000000000000E+000
2,9648337E-001	-1,330610472956949E-003	1,000000000000000E+000
2,8358665E-001	-1,159423871599164E-003	1,000000000000000E+000
2,7054945E-001	-1,019977176050624E-003	1,000000000000000E+000
2,5755596E-001	-9,274473035755740E-004	1,000000000000000E+000
2,4450621E-001	-8,770063967138983E-004	1,000000000000000E+000
2,3152332E-001	-8,885807288532659E-004	1,000000000000000E+000
2,1850647E-001	-9,449357853317675E-004	1,000000000000000E+000
2,0551403E-001	-1,034348142758531E-003	1,000000000000000E+000
1,9250569E-001	-1,124256632943869E-003	1,000000000000000E+000
1,7953768E-001	-1,190134876347226E-003	1,000000000000000E+000
1,6643344E-001	-1,227984319537517E-003	1,000000000000000E+000
1,5346047E-001	-1,240192186482346E-003	1,000000000000000E+000
1,4047547E-001	-1,315754605003470E-003	1,000000000000000E+000
1,2749153E-001	-1,317219684437215E-003	1,000000000000000E+000
1,1448634E-001	-1,307855280834359E-003	1,000000000000000E+000
1,0149309E-001	-1,266042725554467E-003	1,000000000000000E+000
8,8480271E-002	-1,280578452507864E-003	1,000000000000000E+000
7,5565353E-002	-1,263938456969559E-003	1,000000000000000E+000
6,2483732E-002	-1,275809233928471E-003	1,000000000000000E+000
4,9533777E-002	-1,273309715811400E-003	1,000000000000000E+000
3,6493570E-002	-1,276631048977073E-003	1,000000000000000E+000
2,3497958E-002	-1,264175204239756E-003	1,000000000000000E+000
1,0527830E-002	-1,224751196090033E-003	1,000000000000000E+000
-7,6564480E-005	-1,190880917277481E-003	1,000000000000000E+000