File: fig_4_nife_ceo2/Activity_2_CV/Ni25Fe75_Activity_2_CV_2_02_CV_C01.txt
Ewe/V	<I>/mA	cycle number
2,6851651E-004	-4,484519958496094E-001	1,000000000000000E+000
1,2966818E-002	-9,371016253286964E-003	1,000000000000000E+000
2,5963807E-002	-4,515119397473750E-003	1,000000000000000E+000
3,9035745E-002	-2,745710778780820E-003	1,000000000000000E+000
5,2047834E-002	-1,738903396999104E-003	1,000000000000000E+000
6,5035276E-002	-1,127121541650428E-003	1,000000000000000E+000
7,8085043E-002	-7,531215191906625E-004	1,000000000000000E+000
9,1028631E-002	-5,416589054864284E-004	1,000000000000000E+000
1,0400087E-001	-4,253699351781954E-004	1,000000000000000E+000
1,1699118E-001	-3,461649168932748E-004	1,000000000000000E+000
1,3004413E-001	-2,660090630956565E-004	1,000000000000000E+000
1,4301531E-001	-1,814177673309434E-004	1,000000000000000E+000
1,5602154E-001	-6,172904743975542E-005	1,000000000000000E+000
1,6900444E-001	6,137264403157982E-005	1,000000000000000E+000
1,8202764E-001	2,067652755619572E-004	1,000000000000000E+000
1,9498716E-001	3,591964491317335E-004	1,000000000000000E+000
2,0806666E-001	4,837454566716873E-004	1,000000000000000E+000
2,2099748E-001	5,497399233718186E-004	1,000000000000000E+000
2,3403025E-001	5,349236856043585E-004	1,000000000000000E+000
2,4699508E-001	4,627265793688108E-004	1,000000000000000E+000
2,5998113E-001	3,783789013984735E-004	1,000000000000000E+000
2,7299696E-001	3,295351393170771E-004	1,000000000000000E+000
2,8600425E-001	3,536862882964611E-004	1,000000000000000E+000
2,9894611E-001	4,539930165070429E-004	1,000000000000000E+000
3,1206235E-001	5,775348786205749E-004	1,000000000000000E+000
3,2505569E-001	6,860275453892672E-004	1,000000000000000E+000
3,3799580E-001	7,742582559684269E-004	1,000000000000000E+000
3,5103747E-001	8,311847633110138E-004	1,000000000000000E+000
3,6404055E-001	8,426645815364179E-004	1,000000000000000E+000
3,7700003E-001	8,024277473382656E-004	1,000000000000000E+000
3,9000416E-001	7,486609313522834E-004	1,000000000000000E+000
4,0295091E-001	7,024036842428263E-004	1,000000000000000E+000
4,1595608E-001	6,649192551516792E-004	1,000000000000000E+000
4,2893690E-001	6,806282001470855E-004	1,000000000000000E+000
4,4195798E-001	7,783553196191763E-004	1,000000000000000E+000
4,5495671E-001	9,523727321287694E-004	1,000000000000000E+000
4,6805218E-001	1,192050629676268E-003	1,000000000000000E+000
4,8105735E-001	1,487187705295212E-003	1,000000000000000E+000
4,9402213E-001	1,898773041636419E-003	1,000000000000000E+000
5,0704426E-001	2,781409722585369E-003	1,000000000000000E+000
5,1999742E-001	5,120960028331040E-003	1,000000000000000E+000
5,3310561E-001	1,216433255751342E-002	1,000000000000000E+000
5,4605240E-001	2,540898530257249E-002	1,000000000000000E+000
5,5901819E-001	4,398954475204531E-002	1,000000000000000E+000
5,7210088E-001	7,166133598070390E-002	1,000000000000000E+000
5,8516908E-001	1,208380897746236E-001	1,000000000000000E+000
5,9816241E-001	1,891064820478094E-001	1,000000000000000E+000
6,1117244E-001	2,776430019890972E-001	1,000000000000000E+000
6,2418860E-001	3,891611507779089E-001	1,000000000000000E+000
6,3718837E-001	5,215007189889365E-001	1,000000000000000E+000
6,5019989E-001	6,897169526776228E-001	1,000000000000000E+000
6,6316366E-001	8,878430607823722E-001	1,000000000000000E+000
6,7631215E-001	1,130457550160536E+000	1,000000000000000E+000
6,8923771E-001	1,412513711327122E+000	1,000000000000000E+000
7,0228428E-001	1,728065096264253E+000	1,000000000000000E+000
7,1527040E-001	2,080057572041241E+000	1,000000000000000E+000
7,2822875E-001	2,474329305529736E+000	1,000000000000000E+000
7,4128395E-001	2,891955753623627E+000	1,000000000000000E+000
7,5425184E-001	3,338268819883837E+000	1,000000000000000E+000
7,6730806E-001	3,811807453530989E+000	1,000000000000000E+000
7,8030050E-001	4,308620958912128E+000	1,000000000000000E+000
7,9323769E-001	4,824553325130267E+000	1,000000000000000E+000
8,0625135E-001	5,358820060787558E+000	1,000000000000000E+000
8,1919807E-001	5,899758020766427E+000	1,000000000000000E+000
8,3226275E-001	6,463727834138197E+000	1,000000000000000E+000
8,4520519E-001	7,045860070760568E+000	1,000000000000000E+000
8,5827774E-001	7,640794507284170E+000	1,000000000000000E+000
8,7130165E-001	8,237456261450681E+000	1,000000000000000E+000
8,8425547E-001	8,870621385676429E+000	1,000000000000000E+000
8,9729381E-001	9,489988638092342E+000	1,000000000000000E+000
9,1022795E-001	1,012890806050797E+001	1,000000000000000E+000
9,2327338E-001	1,078450561860525E+001	1,000000000000000E+000
9,3631995E-001	1,140984687276708E+001	1,000000000000000E+000
9,4935381E-001	1,205906910393514E+001	1,000000000000000E+000
9,6237606E-001	1,268992268255232E+001	1,000000000000000E+000
9,7535872E-001	1,331086859749018E+001	1,000000000000000E+000
9,8834378E-001	1,392194423721489E+001	1,000000000000000E+000
9,9924135E-001	1,437118308276544E+001	1,000000000000000E+000
9,8622334E-001	1,343892225778563E+001	1,000000000000000E+000
9,7323632E-001	1,265058852255748E+001	1,000000000000000E+000
9,6024704E-001	1,191177241737336E+001	1,000000000000000E+000
9,4721532E-001	1,121468027676042E+001	1,000000000000000E+000
9,3426538E-001	1,052245799754483E+001	1,000000000000000E+000
9,2119545E-001	9,852559000861888E+000	1,000000000000000E+000
9,0822953E-001	9,236325974705011E+000	1,000000000000000E+000
8,9524025E-001	8,600266601155411E+000	1,000000000000000E+000
8,8225323E-001	7,981527910346117E+000	1,000000000000000E+000
8,6915773E-001	7,402876509695659E+000	1,000000000000000E+000
8,5622263E-001	6,834513913882290E+000	1,000000000000000E+000
8,4319299E-001	6,295889952893717E+000	1,000000000000000E+000
8,3022726E-001	5,754631273532937E+000	1,000000000000000E+000
8,1727189E-001	5,258779472403237E+000	1,000000000000000E+000
8,0422169E-001	4,768500792074798E+000	1,000000000000000E+000
7,9105741E-001	4,295821308409970E+000	1,000000000000000E+000
7,7805454E-001	3,835438865004846E+000	1,000000000000000E+000
7,6507741E-001	3,409908300022245E+000	1,000000000000000E+000
7,5205606E-001	2,986385958433949E+000	1,000000000000000E+000
7,3904347E-001	2,602193625065201E+000	1,000000000000000E+000
7,2600102E-001	2,235496758721990E+000	1,000000000000000E+000
7,1311164E-001	1,897525615669160E+000	1,000000000000000E+000
7,0004499E-001	1,588135372771292E+000	1,000000000000000E+000
6,8707907E-001	1,304870939097636E+000	1,000000000000000E+000
6,7408770E-001	1,056536559961621E+000	1,000000000000000E+000
6,6104853E-001	8,392244292731430E-001	1,000000000000000E+000
6,4802855E-001	6,561903366586708E-001	1,000000000000000E+000
6,3507539E-001	5,023572243657135E-001	1,000000000000000E+000
6,2186629E-001	3,718615445623052E-001	1,000000000000000E+000
6,0887289E-001	2,672762786948422E-001	1,000000000000000E+000
5,9588569E-001	1,817018935549792E-001	1,000000000000000E+000
5,8287525E-001	1,164366948268385E-001	1,000000000000000E+000
5,6990403E-001	6,842510254162437E-002	1,000000000000000E+000
5,5664617E-001	3,599117962087028E-002	1,000000000000000E+000
5,4371744E-001	1,720666916472874E-002	1,000000000000000E+000
5,3068781E-001	7,514653406148153E-003	1,000000000000000E+000
5,1759028E-001	2,990686723215626E-003	1,000000000000000E+000
5,0459361E-001	9,082141285141859E-004	1,000000000000000E+000
4,9156085E-001	-2,655963191805852E-004	1,000000000000000E+000
4,7857657E-001	-1,318308797304203E-003	1,000000000000000E+000
4,6557075E-001	-2,783495887095304E-003	1,000000000000000E+000
4,5256382E-001	-5,887921996370594E-003	1,000000000000000E+000
4,3951151E-001	-1,506264758393461E-002	1,000000000000000E+000
4,2656681E-001	-2,024177980293509E-002	1,000000000000000E+000
4,1346294E-001	-8,887583475539890E-003	1,000000000000000E+000
4,0025499E-001	-4,013180843631788E-003	1,000000000000000E+000
3,8734537E-001	-2,570878200732821E-003	1,000000000000000E+000
3,7433490E-001	-1,891978870613483E-003	1,000000000000000E+000
3,6131695E-001	-1,567096270670580E-003	1,000000000000000E+000
3,4831285E-001	-1,426618344863500E-003	1,000000000000000E+000
3,3529919E-001	-1,375310750926451E-003	1,000000000000000E+000
3,2230574E-001	-1,361411115968145E-003	1,000000000000000E+000
3,0927509E-001	-1,355906476318419E-003	1,000000000000000E+000
2,9625502E-001	-1,359682019750522E-003	1,000000000000000E+000
2,8325304E-001	-1,307007392738123E-003	1,000000000000000E+000
2,7028608E-001	-1,229726682359218E-003	1,000000000000000E+000
2,5727350E-001	-1,149270427713567E-003	1,000000000000000E+000
2,4430549E-001	-1,042722233605691E-003	1,000000000000000E+000
2,3136829E-001	-9,344591940598692E-004	1,000000000000000E+000
2,1837799E-001	-8,443198684106572E-004	1,000000000000000E+000
2,0531230E-001	-8,109640076682627E-004	1,000000000000000E+000
1,9234408E-001	-8,440119063290175E-004	1,000000000000000E+000
1,7931908E-001	-9,415779463396244E-004	1,000000000000000E+000
1,6632757E-001	-1,055569737688529E-003	1,000000000000000E+000
1,5335320E-001	-1,136373031745908E-003	1,000000000000000E+000
1,4029600E-001	-1,159607639710219E-003	1,000000000000000E+000
1,2729932E-001	-1,121078719932189E-003	1,000000000000000E+000
1,1432812E-001	-1,043510620166217E-003	1,000000000000000E+000
1,0137180E-001	-9,261022194245362E-004	1,000000000000000E+000
8,8346474E-002	-8,456243992034894E-004	1,000000000000000E+000
7,5339176E-002	-8,016181107413298E-004	1,000000000000000E+000
6,2357366E-002	-8,437464970475917E-004	1,000000000000000E+000
4,9347952E-002	-9,412144813588895E-004	1,000000000000000E+000
3,6288630E-002	-1,067819502071344E-003	1,000000000000000E+000
2,3298325E-002	-1,189628285661753E-003	1,000000000000000E+000
1,0344124E-002	-1,264170632595548E-003	1,000000000000000E+000
-9,4625968E-005	-1,283245228514009E-003	1,000000000000000E+000