File: fig_4_nife_ceo2/Activity_2_CV/Ni50Fe50_Activity2_CV2_02_CV_C01.txt
Ewe/V	<I>/mA	cycle number
5,4310163E-005	-4,952348172664642E-001	1,000000000000000E+000
1,2610329E-002	-6,820497567640802E-003	1,000000000000000E+000
2,5821490E-002	-3,414192630752565E-003	1,000000000000000E+000
3,8812857E-002	-2,122078091962065E-003	1,000000000000000E+000
5,1815238E-002	-1,407993679860220E-003	1,000000000000000E+000
6,4834870E-002	-9,563236067120645E-004	1,000000000000000E+000
7,7825174E-002	-6,585395499799120E-004	1,000000000000000E+000
9,0862200E-002	-4,440364270672514E-004	1,000000000000000E+000
1,0381509E-001	-2,874538216397825E-004	1,000000000000000E+000
1,1680353E-001	-1,563523506215901E-004	1,000000000000000E+000
1,2982780E-001	-5,509134528056256E-005	1,000000000000000E+000
1,4281280E-001	3,329841748552680E-005	1,000000000000000E+000
1,5578292E-001	6,971446251961410E-005	1,000000000000000E+000
1,6881040E-001	1,398951465772067E-004	1,000000000000000E+000
1,8180814E-001	1,954772788336865E-004	1,000000000000000E+000
1,9486108E-001	2,637737463699768E-004	1,000000000000000E+000
2,0779297E-001	3,206955343619498E-004	1,000000000000000E+000
2,2078224E-001	3,838030852276698E-004	1,000000000000000E+000
2,3383519E-001	4,537528327468827E-004	1,000000000000000E+000
2,4679498E-001	5,140610118597238E-004	1,000000000000000E+000
2,5985295E-001	5,687039107862817E-004	1,000000000000000E+000
2,7277419E-001	6,026458632441322E-004	1,000000000000000E+000
2,8583354E-001	6,387464804685738E-004	1,000000000000000E+000
2,9872569E-001	6,494461023059382E-004	1,000000000000000E+000
3,1184602E-001	6,395672657010599E-004	1,000000000000000E+000
3,2480234E-001	6,531078156523391E-004	1,000000000000000E+000
3,3779371E-001	6,512461508641557E-004	1,000000000000000E+000
3,5077661E-001	6,588343541741263E-004	1,000000000000000E+000
3,6376691E-001	6,851186365786494E-004	1,000000000000000E+000
3,7676141E-001	7,144984638938392E-004	1,000000000000000E+000
3,8982183E-001	7,505108657294111E-004	1,000000000000000E+000
4,0279830E-001	7,755996362849207E-004	1,000000000000000E+000
4,1579390E-001	8,375916398040495E-004	1,000000000000000E+000
4,2880967E-001	9,593557903111244E-004	1,000000000000000E+000
4,4175529E-001	1,146882658208612E-003	1,000000000000000E+000
4,5474353E-001	1,463746426757644E-003	1,000000000000000E+000
4,6774986E-001	1,982838345807449E-003	1,000000000000000E+000
4,8076457E-001	2,847363331017663E-003	1,000000000000000E+000
4,9376974E-001	4,185325019474707E-003	1,000000000000000E+000
5,0677806E-001	5,767755528726909E-003	1,000000000000000E+000
5,1977044E-001	7,499030556478561E-003	1,000000000000000E+000
5,3280002E-001	1,080147662988543E-002	1,000000000000000E+000
5,4585409E-001	1,619561231756356E-002	1,000000000000000E+000
5,5889004E-001	2,564151474916693E-002	1,000000000000000E+000
5,7182521E-001	4,610087867095536E-002	1,000000000000000E+000
5,8479470E-001	8,385166752825479E-002	1,000000000000000E+000
5,9790456E-001	1,462689045734307E-001	1,000000000000000E+000
6,1090863E-001	2,412478934758067E-001	1,000000000000000E+000
6,2397224E-001	3,701076100658538E-001	1,000000000000000E+000
6,3693506E-001	5,472785758956884E-001	1,000000000000000E+000
6,4995283E-001	7,794036935136335E-001	1,000000000000000E+000
6,6294950E-001	1,078957768355634E+000	1,000000000000000E+000
6,7598969E-001	1,450881816286282E+000	1,000000000000000E+000
6,8898380E-001	1,890129675133970E+000	1,000000000000000E+000
7,0200962E-001	2,400475320159170E+000	1,000000000000000E+000
7,1499240E-001	2,971786042223446E+000	1,000000000000000E+000
7,2797531E-001	3,619551660252274E+000	1,000000000000000E+000
7,4107391E-001	4,310371880155589E+000	1,000000000000000E+000
7,5402069E-001	5,056362300604420E+000	1,000000000000000E+000
7,6700771E-001	5,847084636692294E+000	1,000000000000000E+000
7,8001297E-001	6,678794316829197E+000	1,000000000000000E+000
7,9303300E-001	7,537114300357530E+000	1,000000000000000E+000
8,0604780E-001	8,424757898597250E+000	1,000000000000000E+000
8,1905395E-001	9,332132040778475E+000	1,000000000000000E+000
8,3194190E-001	1,027139562475284E+001	1,000000000000000E+000
8,4509295E-001	1,122867346330298E+001	1,000000000000000E+000
8,5808861E-001	1,219509355024411E+001	1,000000000000000E+000
8,7115103E-001	1,317573601791378E+001	1,000000000000000E+000
8,8408941E-001	1,416370773531684E+001	1,000000000000000E+000
8,9713061E-001	1,520739042880587E+001	1,000000000000000E+000
9,1014010E-001	1,625189053958232E+001	1,000000000000000E+000
9,2308474E-001	1,729478831639907E+001	1,000000000000000E+000
9,3612176E-001	1,836114507791943E+001	1,000000000000000E+000
9,4911408E-001	1,947257603633965E+001	1,000000000000000E+000
9,6213412E-001	2,060360194996105E+001	1,000000000000000E+000
9,7510988E-001	2,175510739674689E+001	1,000000000000000E+000
9,8809469E-001	2,288795276874859E+001	1,000000000000000E+000
9,9986202E-001	2,389960784178516E+001	1,000000000000000E+000
9,8714852E-001	2,252994851825451E+001	1,000000000000000E+000
9,7417939E-001	2,125678391981018E+001	1,000000000000000E+000
9,6115834E-001	1,994226705514387E+001	1,000000000000000E+000
9,4814056E-001	1,877594780151539E+001	1,000000000000000E+000
9,3518847E-001	1,762513544026960E+001	1,000000000000000E+000
9,2220134E-001	1,651098684405389E+001	1,000000000000000E+000
9,0923965E-001	1,540945914326879E+001	1,000000000000000E+000
8,9619833E-001	1,436887665954579E+001	1,000000000000000E+000
8,8319218E-001	1,333727594770821E+001	1,000000000000000E+000
8,7020528E-001	1,233895171823212E+001	1,000000000000000E+000
8,5719562E-001	1,137107149023316E+001	1,000000000000000E+000
8,4417337E-001	1,042034313001597E+001	1,000000000000000E+000
8,3117139E-001	9,533667764696148E+000	1,000000000000000E+000
8,1821191E-001	8,629452521906387E+000	1,000000000000000E+000
8,0524707E-001	7,787880259306291E+000	1,000000000000000E+000
7,9215062E-001	6,957821902842227E+000	1,000000000000000E+000
7,7914983E-001	6,157908994385508E+000	1,000000000000000E+000
7,6619554E-001	5,383533966277743E+000	1,000000000000000E+000
7,5315958E-001	4,673727586257236E+000	1,000000000000000E+000
7,4009597E-001	3,995625171126150E+000	1,000000000000000E+000
7,2715139E-001	3,367335936325489E+000	1,000000000000000E+000
7,1412921E-001	2,778092706926557E+000	1,000000000000000E+000
7,0114946E-001	2,247879046194946E+000	1,000000000000000E+000
6,8811035E-001	1,777200274101876E+000	1,000000000000000E+000
6,7518061E-001	1,367355096814918E+000	1,000000000000000E+000
6,6208625E-001	1,025799593594677E+000	1,000000000000000E+000
6,4911294E-001	7,429225126961434E-001	1,000000000000000E+000
6,3606739E-001	5,186030901503853E-001	1,000000000000000E+000
6,2303352E-001	3,503319157768985E-001	1,000000000000000E+000
6,0997629E-001	2,255135984339520E-001	1,000000000000000E+000
5,9706563E-001	1,373817038800482E-001	1,000000000000000E+000
5,8407640E-001	7,927715835036214E-002	1,000000000000000E+000
5,7086736E-001	4,234256901299926E-002	1,000000000000000E+000
5,5780911E-001	2,135797190522692E-002	1,000000000000000E+000
5,4482526E-001	1,030210623088137E-002	1,000000000000000E+000
5,3179109E-001	5,035741411274594E-003	1,000000000000000E+000
5,1872247E-001	2,577669712368507E-003	1,000000000000000E+000
5,0571626E-001	1,473505981604728E-003	1,000000000000000E+000
4,9273127E-001	7,813357916386914E-004	1,000000000000000E+000
4,7968522E-001	6,092178765265449E-005	1,000000000000000E+000
4,6672094E-001	-1,279274665727071E-003	1,000000000000000E+000
4,5375502E-001	-4,598054595381630E-003	1,000000000000000E+000
4,4070739E-001	-9,623220205188736E-003	1,000000000000000E+000
4,2763853E-001	-1,024432824057414E-002	1,000000000000000E+000
4,1462907E-001	-6,390527306193723E-003	1,000000000000000E+000
4,0145406E-001	-3,456792628157367E-003	1,000000000000000E+000
3,8850516E-001	-2,272479492335347E-003	1,000000000000000E+000
3,7550426E-001	-1,714519629693274E-003	1,000000000000000E+000
3,6245444E-001	-1,440607828807521E-003	1,000000000000000E+000
3,4945884E-001	-1,260111361051443E-003	1,000000000000000E+000
3,3649594E-001	-1,116547634604682E-003	1,000000000000000E+000
3,2348460E-001	-9,921286381914252E-004	1,000000000000000E+000
3,1050915E-001	-9,044154587230409E-004	1,000000000000000E+000
2,9748490E-001	-8,179728557683556E-004	1,000000000000000E+000
2,8445563E-001	-7,305409962998933E-004	1,000000000000000E+000
2,7154782E-001	-6,735939149911940E-004	1,000000000000000E+000
2,5850445E-001	-6,210851571760894E-004	1,000000000000000E+000
2,4549714E-001	-5,576101824908309E-004	1,000000000000000E+000
2,3252808E-001	-5,209244157530785E-004	1,000000000000000E+000
2,1949847E-001	-4,660459466169589E-004	1,000000000000000E+000
2,0646250E-001	-4,202078730022362E-004	1,000000000000000E+000
1,9349557E-001	-3,934443965572087E-004	1,000000000000000E+000
1,8052863E-001	-3,708887302959077E-004	1,000000000000000E+000
1,6750647E-001	-3,609966185676491E-004	1,000000000000000E+000
1,5449281E-001	-3,832146157637789E-004	1,000000000000000E+000
1,4148407E-001	-4,063883282778638E-004	1,000000000000000E+000
1,2850690E-001	-4,582227106343598E-004	1,000000000000000E+000
1,1549643E-001	-5,101786629023164E-004	1,000000000000000E+000
1,0249443E-001	-5,538400724337035E-004	1,000000000000000E+000
8,9521483E-002	-5,658739732289520E-004	1,000000000000000E+000
7,6445878E-002	-6,083672138184008E-004	1,000000000000000E+000
6,3512906E-002	-6,759048001948955E-004	1,000000000000000E+000
5,0480131E-002	-7,517861026465817E-004	1,000000000000000E+000
3,7462223E-002	-8,109540355531334E-004	1,000000000000000E+000
2,4428383E-002	-8,739360676036419E-004	1,000000000000000E+000
1,1494357E-002	-9,284739696470649E-004	1,000000000000000E+000
-4,2350887E-004	-9,496281831981796E-004	1,000000000000000E+000