File: fig_4_nife_ceo2/Activity_2_CV/Ni75Fe25_Activity_2_CV_2_02_CV_C01.txt
Ewe/V	<I>/mA	cycle number
9,8556193E-005	-4,921836853027344E-001	1,000000000000000E+000
1,2686430E-002	-4,007844888666412E-002	1,000000000000000E+000
2,5641693E-002	-2,252162780925257E-002	1,000000000000000E+000
3,8665976E-002	-1,510778008279118E-002	1,000000000000000E+000
5,1686008E-002	-1,097521332351017E-002	1,000000000000000E+000
6,4637028E-002	-8,299351387191040E-003	1,000000000000000E+000
7,7652812E-002	-6,504375478062697E-003	1,000000000000000E+000
9,0685591E-002	-5,110698355903789E-003	1,000000000000000E+000
1,0381287E-001	-4,169044026474319E-003	1,000000000000000E+000
1,1685944E-001	-3,413620834626083E-003	1,000000000000000E+000
1,2986037E-001	-2,854547829333184E-003	1,000000000000000E+000
1,4289632E-001	-2,375769371575596E-003	1,000000000000000E+000
1,5584098E-001	-1,985776984861284E-003	1,000000000000000E+000
1,6878775E-001	-1,620125524978058E-003	1,000000000000000E+000
1,8184920E-001	-1,303202316590042E-003	1,000000000000000E+000
1,9481932E-001	-1,029636484411819E-003	1,000000000000000E+000
2,0784996E-001	-7,675990598649037E-004	1,000000000000000E+000
2,2078609E-001	-5,804068058724708E-004	1,000000000000000E+000
2,3385818E-001	-3,942822824112111E-004	1,000000000000000E+000
2,4690580E-001	-2,481842834699990E-004	1,000000000000000E+000
2,5987384E-001	-1,225996484855796E-004	1,000000000000000E+000
2,7284181E-001	-4,143323266892520E-006	1,000000000000000E+000
2,8582045E-001	7,150463506090286E-005	1,000000000000000E+000
2,9879481E-001	1,307114154281030E-004	1,000000000000000E+000
3,1180319E-001	1,664799744571454E-004	1,000000000000000E+000
3,2479775E-001	1,675598147519862E-004	1,000000000000000E+000
3,3782414E-001	1,643537535393770E-004	1,000000000000000E+000
3,5081232E-001	1,298784314217232E-004	1,000000000000000E+000
3,6374497E-001	1,294618258222090E-004	1,000000000000000E+000
3,7671223E-001	1,372246447363993E-004	1,000000000000000E+000
3,8975668E-001	1,869958698134037E-004	1,000000000000000E+000
4,0278840E-001	2,697040054995532E-004	1,000000000000000E+000
4,1578507E-001	4,159846085009826E-004	1,000000000000000E+000
4,2878917E-001	6,147602859926053E-004	1,000000000000000E+000
4,4181347E-001	9,322479783883120E-004	1,000000000000000E+000
4,5483029E-001	1,335151875809352E-003	1,000000000000000E+000
4,6777391E-001	1,947752656884991E-003	1,000000000000000E+000
4,8080561E-001	3,575264590939126E-003	1,000000000000000E+000
4,9380869E-001	6,877246442213422E-003	1,000000000000000E+000
5,0691152E-001	1,142665801289733E-002	1,000000000000000E+000
5,1988375E-001	1,867792376289636E-002	1,000000000000000E+000
5,3286767E-001	3,027009590615484E-002	1,000000000000000E+000
5,4592276E-001	3,992643875076257E-002	1,000000000000000E+000
5,5892485E-001	4,823947072189760E-002	1,000000000000000E+000
5,7189810E-001	6,652598705484847E-002	1,000000000000000E+000
5,8485442E-001	1,014324686713857E-001	1,000000000000000E+000
5,9799653E-001	1,577629457194099E-001	1,000000000000000E+000
6,1100382E-001	2,352558920569630E-001	1,000000000000000E+000
6,2398112E-001	3,401665119729962E-001	1,000000000000000E+000
6,3699615E-001	4,678149232450796E-001	1,000000000000000E+000
6,5003419E-001	6,256316915796493E-001	1,000000000000000E+000
6,6303086E-001	8,127161102821336E-001	1,000000000000000E+000
6,7598826E-001	1,032059777198597E+000	1,000000000000000E+000
6,8911988E-001	1,278065213634938E+000	1,000000000000000E+000
7,0212179E-001	1,559229318483339E+000	1,000000000000000E+000
7,1510464E-001	1,865027615340118E+000	1,000000000000000E+000
7,2811931E-001	2,202824512390990E+000	1,000000000000000E+000
7,4107248E-001	2,557263864326787E+000	1,000000000000000E+000
7,5405645E-001	2,937835290852405E+000	1,000000000000000E+000
7,6700848E-001	3,333179566933183E+000	1,000000000000000E+000
7,8005195E-001	3,746728142068765E+000	1,000000000000000E+000
7,9308039E-001	4,165852483437980E+000	1,000000000000000E+000
8,0604631E-001	4,606912544727869E+000	1,000000000000000E+000
8,1908303E-001	5,057435153816506E+000	1,000000000000000E+000
8,3208203E-001	5,519260805412763E+000	1,000000000000000E+000
8,4509587E-001	5,992651244781740E+000	1,000000000000000E+000
8,5812116E-001	6,477186706331036E+000	1,000000000000000E+000
8,7109655E-001	6,966394527226086E+000	1,000000000000000E+000
8,8413990E-001	7,474705017973832E+000	1,000000000000000E+000
8,9714199E-001	7,981517489737627E+000	1,000000000000000E+000
9,1011840E-001	8,518007204308255E+000	1,000000000000000E+000
9,2304927E-001	9,033047982962472E+000	1,000000000000000E+000
9,3606508E-001	9,588572264123130E+000	1,000000000000000E+000
9,4905937E-001	1,013536368222468E+001	1,000000000000000E+000
9,6210515E-001	1,065163249831623E+001	1,000000000000000E+000
9,7512728E-001	1,120460844344029E+001	1,000000000000000E+000
9,8816329E-001	1,174731095361597E+001	1,000000000000000E+000
9,9982983E-001	1,215554879261896E+001	1,000000000000000E+000
9,8721826E-001	1,138872563920052E+001	1,000000000000000E+000
9,7426724E-001	1,067650036992460E+001	1,000000000000000E+000
9,6127689E-001	1,000669015954142E+001	1,000000000000000E+000
9,4824636E-001	9,403298342309018E+000	1,000000000000000E+000
9,3524003E-001	8,807314157080469E+000	1,000000000000000E+000
9,2223370E-001	8,264147873706030E+000	1,000000000000000E+000
9,0920460E-001	7,722484380650087E+000	1,000000000000000E+000
8,9623308E-001	7,202720319467900E+000	1,000000000000000E+000
8,8329375E-001	6,717126093348696E+000	1,000000000000000E+000
8,7025458E-001	6,242401836410437E+000	1,000000000000000E+000
8,5721755E-001	5,774895137670089E+000	1,000000000000000E+000
8,4418106E-001	5,328104519719160E+000	1,000000000000000E+000
8,3125502E-001	4,916328053118946E+000	1,000000000000000E+000
8,1819719E-001	4,506990443170068E+000	1,000000000000000E+000
8,0518407E-001	4,105574125605640E+000	1,000000000000000E+000
7,9219592E-001	3,708862526312716E+000	1,000000000000000E+000
7,7919549E-001	3,341075889330182E+000	1,000000000000000E+000
7,6619732E-001	2,973006546277713E+000	1,000000000000000E+000
7,5315285E-001	2,625314685847618E+000	1,000000000000000E+000
7,4016148E-001	2,300644636542753E+000	1,000000000000000E+000
7,2721261E-001	1,986303015141125E+000	1,000000000000000E+000
7,1421152E-001	1,692686338750040E+000	1,000000000000000E+000
7,0119160E-001	1,422731936493228E+000	1,000000000000000E+000
6,8810892E-001	1,175789695131742E+000	1,000000000000000E+000
6,7522591E-001	9,466030262072795E-001	1,000000000000000E+000
6,6219521E-001	7,478089833256210E-001	1,000000000000000E+000
6,4914572E-001	5,721377897031008E-001	1,000000000000000E+000
6,3589287E-001	4,236467613283175E-001	1,000000000000000E+000
6,2296313E-001	3,021608510280611E-001	1,000000000000000E+000
6,0998452E-001	2,061780621097036E-001	1,000000000000000E+000
5,9699845E-001	1,335760201084639E-001	1,000000000000000E+000
5,8399850E-001	8,173080475356176E-002	1,000000000000000E+000
5,7103795E-001	4,727245827734478E-002	1,000000000000000E+000
5,5782366E-001	2,605731437899281E-002	1,000000000000000E+000
5,4486412E-001	1,423352587727371E-002	1,000000000000000E+000
5,3179729E-001	7,828708680540867E-003	1,000000000000000E+000
5,1865715E-001	4,064301491150622E-003	1,000000000000000E+000
5,0575519E-001	2,057959125811488E-003	1,000000000000000E+000
4,9268100E-001	6,529963991980005E-004	1,000000000000000E+000
4,7967476E-001	-6,444377908164396E-004	1,000000000000000E+000
4,6670571E-001	-2,412938592913763E-003	1,000000000000000E+000
4,5370007E-001	-6,162680532355830E-003	1,000000000000000E+000
4,4061360E-001	-1,337216084832518E-002	1,000000000000000E+000
4,2759570E-001	-1,560175904590753E-002	1,000000000000000E+000
4,1463727E-001	-1,148226627060520E-002	1,000000000000000E+000
4,0161398E-001	-8,389121203687566E-003	1,000000000000000E+000
3,8861167E-001	-7,385315606675297E-003	1,000000000000000E+000
3,7566635E-001	-7,333302937047849E-003	1,000000000000000E+000
3,6260173E-001	-7,632712653812768E-003	1,000000000000000E+000
3,4962839E-001	-8,097767779804754E-003	1,000000000000000E+000
3,3662534E-001	-8,558015099712352E-003	1,000000000000000E+000
3,2358640E-001	-8,986716165503818E-003	1,000000000000000E+000
3,1058526E-001	-9,371801995267826E-003	1,000000000000000E+000
2,9762259E-001	-9,659223968998362E-003	1,000000000000000E+000
2,8461531E-001	-9,850584948329851E-003	1,000000000000000E+000
2,7155912E-001	-9,884232814149740E-003	1,000000000000000E+000
2,5858799E-001	-9,707126067709376E-003	1,000000000000000E+000
2,4559450E-001	-9,364060975667707E-003	1,000000000000000E+000
2,3266576E-001	-8,952755494269743E-003	1,000000000000000E+000
2,1962662E-001	-8,411212892457942E-003	1,000000000000000E+000
2,0657896E-001	-7,784812703193823E-003	1,000000000000000E+000
1,9362652E-001	-7,162549800380086E-003	1,000000000000000E+000
1,8064083E-001	-6,516226818901266E-003	1,000000000000000E+000
1,6759320E-001	-5,905670290332413E-003	1,000000000000000E+000
1,5464962E-001	-5,368103788337537E-003	1,000000000000000E+000
1,4162640E-001	-4,846255448450174E-003	1,000000000000000E+000
1,2867962E-001	-4,384700254581958E-003	1,000000000000000E+000
1,1546846E-001	-3,425407064553292E-003	1,000000000000000E+000
1,0245586E-001	-3,075396637601230E-003	1,000000000000000E+000
8,9489982E-002	-2,723270855917136E-003	1,000000000000000E+000
7,6518789E-002	-2,487769180736163E-003	1,000000000000000E+000
6,3482828E-002	-2,290249352762189E-003	1,000000000000000E+000
5,0497830E-002	-2,102818086229518E-003	1,000000000000000E+000
3,7478857E-002	-1,993166541457236E-003	1,000000000000000E+000
2,4489619E-002	-1,893119962329375E-003	1,000000000000000E+000
1,1440916E-002	-1,890977200302443E-003	1,000000000000000E+000
-2,8369905E-004	-1,892335925196461E-003	1,000000000000000E+000