File: fig_5_ni90fe10_ceo2_tio2_zro2/Activity_2/TiO2_activity_2.txt
Ewe/V	<I>/mA
5,0404209E-001	0,000000000000000E+000
6,5222800E-002	-5,863989667371428E-001
6,9435306E-002	-3,028875032034350E-001
7,3485516E-002	-2,193485967278517E-001
7,7449799E-002	-1,752063431534197E-001
8,1463926E-002	-1,468830262532538E-001
8,5471697E-002	-1,269400300755843E-001
8,9488283E-002	-1,120802868692532E-001
9,3492545E-002	-1,005131992576916E-001
9,7439855E-002	-9,136592096262675E-002
1,0145292E-001	-8,370364262129004E-002
1,0545433E-001	-7,730660004416701E-002
1,0945468E-001	-7,174295904653366E-002
1,1345715E-001	-6,689190346475216E-002
1,1742990E-001	-6,270633525449498E-002
1,2141965E-001	-5,885833385558825E-002
1,2541045E-001	-5,538640583943472E-002
1,2946276E-001	-5,227370032842149E-002
1,3347903E-001	-4,942048522073539E-002
1,3741679E-001	-4,683779389016707E-002
1,4164521E-001	-4,452277142240924E-002
1,4561373E-001	-4,236423876057338E-002
1,4963530E-001	-4,028505576291930E-002
1,5365368E-001	-3,831664748149832E-002
1,5765613E-001	-3,646999316120020E-002
1,6163421E-001	-3,477262983192597E-002
1,6559744E-001	-3,312580308997293E-002
1,6964127E-001	-3,161376656393161E-002
1,7362462E-001	-3,016411667861785E-002
1,7763558E-001	-2,877847905072256E-002
1,8164760E-001	-2,746909507312714E-002
1,8564053E-001	-2,624201730829215E-002
1,8961647E-001	-2,504285179657229E-002
1,9364229E-001	-2,396249343113671E-002
1,9766480E-001	-2,283097519455879E-002
2,0163235E-001	-2,183812430873933E-002
2,0562102E-001	-2,084661063911333E-002
2,0963199E-001	-1,990632135133293E-002
2,1362278E-001	-1,900759859426604E-002
2,1765493E-001	-1,816270328728721E-002
2,2163834E-001	-1,734182583746263E-002
2,2560048E-001	-1,654536607189536E-002
2,2966234E-001	-1,577997165140768E-002
2,3365530E-001	-1,503876828648731E-002
2,3767576E-001	-1,429568501302860E-002
2,4164854E-001	-1,363723407538556E-002
2,4563296E-001	-1,298060173658727E-002
2,4964075E-001	-1,235029639772829E-002
2,5360823E-001	-1,175897649169660E-002
2,5762975E-001	-1,117257742442732E-002
2,6165980E-001	-1,060252097412065E-002
2,6560584E-001	-1,008086943279968E-002
2,6966581E-001	-9,532563237218905E-003
2,7363008E-001	-9,034857335181001E-003
2,7759647E-001	-8,541345414430995E-003
2,8158835E-001	-8,092220619615453E-003
2,8566402E-001	-7,645133792413709E-003
2,8963464E-001	-7,201560923754152E-003
2,9360211E-001	-6,797280411715290E-003
2,9761094E-001	-6,395974932668774E-003
3,0163887E-001	-6,005106486076226E-003
3,0566576E-001	-5,640145887805804E-003
3,0960774E-001	-5,270440000953586E-003
3,1363568E-001	-4,927391670496436E-003
3,1761375E-001	-4,576175053142770E-003
3,2160136E-001	-4,274720005692914E-003
3,2560489E-001	-3,955307009098259E-003
3,2960945E-001	-3,647013503438830E-003
3,3362153E-001	-3,353526546269931E-003
3,3762610E-001	-3,073483828370499E-003
3,4164870E-001	-2,796714579579744E-003
3,4562150E-001	-2,525700738256517E-003
3,4963030E-001	-2,303040116394978E-003
3,5360730E-001	-2,045017185713618E-003
3,5764688E-001	-1,823611695776368E-003
3,6163130E-001	-1,566108673430955E-003
3,6559880E-001	-1,357375822911566E-003
3,6958006E-001	-1,118966864440837E-003
3,7359843E-001	-9,485558606139796E-004
3,7762639E-001	-7,293116946351583E-004
3,8159594E-001	-5,440836153969911E-004
3,8563025E-001	-3,470778882205252E-004
3,8959450E-001	-1,254227573993503E-004
3,9361498E-001	4,348814015112183E-005
3,9764506E-001	2,326091202543090E-004
4,0160948E-001	4,314929306047932E-004
4,0561289E-001	6,164229690087186E-004
4,0958455E-001	8,290160872268409E-004
4,1370371E-001	1,009481395521190E-003
4,1770932E-001	1,173942819678360E-003
4,2169595E-001	1,332794926320009E-003
4,2567933E-001	1,551112888961047E-003
4,2964569E-001	1,706413544149930E-003
4,3364817E-001	1,877316674404994E-003
4,3769306E-001	2,050052426287918E-003
4,4168809E-001	2,227257281218316E-003
4,4568524E-001	2,385226516786290E-003
4,4970149E-001	2,563994833481527E-003
4,5369124E-001	2,730024134589878E-003
4,5767251E-001	2,936396388500823E-003
4,6165055E-001	3,148058291397686E-003
4,6569118E-001	3,483560310477141E-003
4,6963850E-001	3,956442803602800E-003
4,7362509E-001	4,646910763070590E-003
4,7768164E-001	5,560350299854022E-003
4,8167670E-001	6,500757478474270E-003
4,8565897E-001	7,686454717683873E-003
4,8967212E-001	9,345859120089908E-003
4,9368727E-001	1,149112711611198E-002
4,9762189E-001	1,417630984880300E-002
5,0171876E-001	1,709922568428027E-002
5,0564373E-001	1,984211929021562E-002
5,0971377E-001	2,230174578218602E-002
5,1363599E-001	2,486110776990152E-002
5,1766604E-001	2,841332849498446E-002
5,2165365E-001	3,319151232904960E-002
5,2563280E-001	3,976119627047309E-002
5,2965331E-001	4,759600223570026E-002
5,3361750E-001	5,655590240693686E-002
5,3767866E-001	6,870545980311626E-002
5,4167867E-001	8,938620476075387E-002
5,4575855E-001	1,237702394567446E-001
5,4980779E-001	1,650316995767086E-001
5,5380917E-001	2,053147593635614E-001
5,5776066E-001	2,397882113963909E-001
5,6175357E-001	2,673567896286495E-001
5,6574863E-001	2,888218856684848E-001
5,6975538E-001	3,058938281969619E-001
5,7377481E-001	3,199725101497060E-001
5,7773423E-001	3,313896917084003E-001
5,8174795E-001	3,404539237284601E-001
5,8573341E-001	3,475573053097776E-001
5,8976668E-001	3,538314009976506E-001
5,9380943E-001	3,594294041374075E-001
5,9773344E-001	3,657941384169199E-001
6,0174751E-001	3,744683278716099E-001
6,0575575E-001	3,859703371881960E-001
6,0976207E-001	4,008141993175407E-001
6,1378783E-001	4,200248616048547E-001
6,1776376E-001	4,440718491027411E-001
6,2172067E-001	4,728560747405571E-001
6,2573159E-001	5,072985890906417E-001
6,2972242E-001	5,479904578876198E-001
6,3375348E-001	5,952721675203208E-001
6,3774002E-001	6,503475758409687E-001
6,4178813E-001	7,141140504885879E-001
6,4575130E-001	7,877116133902291E-001
6,4971989E-001	8,710773376042589E-001
6,5372229E-001	9,674437839005634E-001
6,5781277E-001	1,078999402153555E+000
6,6183227E-001	1,207501259968190E+000
6,6584110E-001	1,347903120950236E+000
6,6986483E-001	1,507330388768393E+000
6,7383754E-001	1,683129543349859E+000
6,7787820E-001	1,880830553535578E+000
6,8189240E-001	2,093768282981408E+000
6,8586850E-001	2,331555526570099E+000
6,8982202E-001	2,587737058718060E+000
6,9386899E-001	2,863272500720697E+000
6,9789690E-001	3,159421376326463E+000
7,0185483E-001	3,474344649992034E+000
7,0582229E-001	3,796992018379612E+000
7,0988423E-001	4,148508160089953E+000
7,1381801E-001	4,513404841709642E+000
7,1784037E-001	4,890333318994166E+000
7,2184390E-001	5,280129078159007E+000
7,2584945E-001	5,679146038870968E+000
7,2984552E-001	6,104458588422546E+000
7,3381406E-001	6,528309701994701E+000
7,3781657E-001	6,978663488918436E+000
7,4186778E-001	7,423067836602044E+000
7,4587035E-001	7,883187470590173E+000
7,4987066E-001	8,365356387532522E+000
7,5387001E-001	8,828467596753356E+000
7,5785857E-001	9,327576598950799E+000
7,6180804E-001	9,808427815940087E+000
7,6582956E-001	1,029790409257353E+001
7,6994729E-001	1,074997555045115E+001
7,7401912E-001	1,137725636903663E+001
7,7805662E-001	1,189420607794171E+001
7,8200382E-001	1,239613825995094E+001
7,8604138E-001	1,290683876697705E+001
7,9001945E-001	1,345241094879012E+001
7,9402077E-001	1,400775574164604E+001
7,9805827E-001	1,451071915429195E+001
8,0204493E-001	1,507142275652919E+001
8,0601227E-001	1,563352344757840E+001
8,1007314E-001	1,607304362631704E+001
8,1401300E-001	1,664866437622756E+001
8,1802285E-001	1,720232825646860E+001
8,2210279E-001	1,781095671586164E+001
8,2605642E-001	1,829548673997391E+001
8,3004844E-001	1,889851561479290E+001
8,3406031E-001	1,946341085731316E+001
8,3807230E-001	2,001204076848603E+001
8,4206206E-001	2,053112283531499E+001
8,4610170E-001	2,108957834159969E+001
8,5006386E-001	2,162760963459968E+001
8,5408640E-001	2,223272296211877E+001
8,5806990E-001	2,280358499721058E+001
8,6211896E-001	2,327386415085817E+001
8,6604929E-001	2,383308293827548E+001
8,7005919E-001	2,434472936499964E+001
8,7408185E-001	2,498995998643690E+001
8,7806410E-001	2,558296107245690E+001
8,8205808E-001	2,607883008429258E+001
8,8606489E-001	2,670742997236530E+001
8,9004081E-001	2,724976057854911E+001
8,9406341E-001	2,776670928093318E+001
8,9809352E-001	2,821638234104967E+001
8,9930308E-001	2,891322766817535E+001