File: fig_5_ni90fe10_ceo2_tio2_zro2/Activity_2/ZrO2_ACTIVITY_2.txt
Ewe/V	<I>/mA
4,634173810482025E-001	0,000000000000000E+000
6,505770236253738E-002	-9,589876441597567E-002
6,910727918148041E-002	-4,310697501425154E-002
7,316660135984421E-002	-2,975148790702858E-002
7,715845853090286E-002	-2,319146891807200E-002
8,122033625841141E-002	-1,929614173465935E-002
8,514642715454102E-002	-1,670139464560277E-002
8,914888650178909E-002	-1,485558235904315E-002
9,320120513439178E-002	-1,346185973509111E-002
9,712836891412735E-002	-1,234543991492650E-002
1,011881157755852E-001	-1,139546966486688E-002
1,051439121365547E-001	-1,060842539135221E-002
1,091601550579071E-001	-9,876617352367861E-003
1,131575480103493E-001	-9,261727151824467E-003
1,171491816639900E-001	-8,712180169674649E-003
1,211856007575989E-001	-8,218502571905050E-003
1,251546591520309E-001	-7,770939495078066E-003
1,292106956243515E-001	-7,330643293268851E-003
1,331484466791153E-001	-6,957819054294920E-003
1,371371150016785E-001	-6,603525208334113E-003
1,411533802747726E-001	-6,261388049645711E-003
1,451781243085861E-001	-5,955801158311902E-003
1,491880267858505E-001	-5,658322216156503E-003
1,531353145837784E-001	-5,373362566425212E-003
1,571515947580338E-001	-5,101369252566211E-003
1,611126661300659E-001	-5,771969142891284E-003
1,651098281145096E-001	-5,532843630560058E-003
1,691186875104904E-001	-5,318568701208573E-003
1,731625050306320E-001	-5,058538557148759E-003
1,771289259195328E-001	-4,844920632844918E-003
1,811398565769196E-001	-4,666172069681680E-003
1,851603537797928E-001	-4,453271135366817E-003
1,891492009162903E-001	-4,323600203261557E-003
1,931599825620651E-001	-4,103887219973471E-003
1,971423029899597E-001	-3,943199213687125E-003
2,011362910270691E-001	-3,774090915418889E-003
2,051567882299423E-001	-3,633615567429135E-003
2,091740965843201E-001	-3,498642852483934E-003
2,131723314523697E-001	-3,356112263723982E-003
2,171588838100433E-001	-3,197000829224175E-003
2,211496680974960E-001	-3,088540165380748E-003
2,251468449831009E-001	-2,950616182876616E-003
2,291090041399002E-001	-2,859311130133706E-003
2,331369519233704E-001	-2,716772615364592E-003
2,371712327003479E-001	-2,598369218006637E-003
2,411832213401794E-001	-2,504358043954364E-003
2,451676875352860E-001	-2,366570365956916E-003
2,491818219423294E-001	-2,287250683923275E-003
2,531496286392212E-001	-2,172456551533506E-003
2,571665644645691E-001	-2,047846625034246E-003
2,611605823040009E-001	-1,967594018246910E-003
2,651224136352539E-001	-1,876515377359497E-003
2,691655158996582E-001	-1,768044766802812E-003
2,731308341026306E-001	-1,658989798042534E-003
2,771227061748505E-001	-1,612100665537249E-003
2,811442315578461E-001	-1,491771880532003E-003
2,851774990558624E-001	-1,386071744703770E-003
2,891597747802734E-001	-1,312752601268154E-003
2,931612133979797E-001	-1,257092083589519E-003
2,971456348896027E-001	-1,145249685028291E-003
3,011470735073090E-001	-1,071498863126602E-003
3,051643669605255E-001	-9,933771879354902E-004
3,091169595718384E-001	-9,116385826670494E-004
3,130589723587036E-001	-8,311091394040196E-004
3,171272277832031E-001	-7,574700894327916E-004
3,211456239223480E-001	-6,402434615189268E-004
3,251650333404541E-001	-5,815629288573054E-004
3,290955424308777E-001	-4,971672941193623E-004
3,331084251403809E-001	-4,272881804306815E-004
3,371406197547913E-001	-3,046383777801150E-004
3,411123454570770E-001	-2,481154305956088E-004
3,451412916183472E-001	-1,327636001919590E-004
3,491331338882446E-001	-3,192914985395096E-005
3,531005978584290E-001	5,015575985737404E-005
3,570797145366669E-001	1,201286034164366E-004
3,610959947109222E-001	2,390170627059691E-004
3,651112318038940E-001	3,672248374181081E-004
3,690892755985260E-001	4,461783285915517E-004
3,731405735015869E-001	5,519671980062819E-004
3,771133422851563E-001	6,919735126328617E-004
3,810850381851196E-001	7,722524026487470E-004
3,851150572299957E-001	9,165081182449727E-004
3,891344666481018E-001	1,027797377026721E-003
3,931114673614502E-001	1,155807023088956E-003
3,971288204193115E-001	1,267333516324827E-003
4,011079668998718E-001	1,411586491095865E-003
4,051059782505035E-001	1,527210540997470E-003
4,091361761093140E-001	1,656256084657186E-003
4,131758511066437E-001	1,797074693205103E-003
4,171963036060333E-001	1,948695550525539E-003
4,211733341217041E-001	2,084151363499731E-003
4,252043962478638E-001	2,247542439499428E-003
4,291676580905914E-001	2,386784946706716E-003
4,331828355789185E-001	2,551569560453746E-003
4,371768236160278E-001	2,695030556156072E-003
4,411634206771851E-001	2,857577275703766E-003
4,452210068702698E-001	3,017464207999155E-003
4,492171108722687E-001	3,184935990076873E-003
4,531856179237366E-001	3,365075148613290E-003
4,571838676929474E-001	3,594440139550029E-003
4,612118005752563E-001	3,824149695025224E-003
4,651686549186707E-001	4,179645466092660E-003
4,692072868347168E-001	4,634448007958814E-003
4,731555581092834E-001	5,360205144008486E-003
4,772152900695801E-001	6,306808273193965E-003
4,812103211879730E-001	7,469495723040901E-003
4,852436184883118E-001	8,772299854840349E-003
4,893956184387207E-001	1,035521721217648E-002
4,933705031871796E-001	1,176429025678641E-002
4,973846375942230E-001	1,365588624212496E-002
5,013796687126160E-001	1,605514284617179E-002
5,053630471229553E-001	1,896477334321192E-002
5,093581080436707E-001	2,236263291467328E-002
5,133488774299622E-001	2,640244745081323E-002
5,173650979995728E-001	3,140399477137312E-002
5,213803648948669E-001	3,737351220748397E-002
5,253541469573975E-001	4,417648351072301E-002
5,293555259704590E-001	5,025736068358488E-002
5,333368182182312E-001	5,377820631607444E-002
5,373583436012268E-001	5,389671452193540E-002
5,414118170738220E-001	5,156035951809657E-002
5,453949570655823E-001	4,862453136111899E-002
5,493806600570679E-001	4,638012836511982E-002
5,533925890922546E-001	4,511180479695082E-002
5,573431253433228E-001	4,456412865381149E-002
5,613795518875122E-001	4,476636090255692E-002
5,653861761093140E-001	4,543023525400375E-002
5,693791508674622E-001	4,645036096693084E-002
5,733901262283325E-001	4,781896425880960E-002
5,773660540580750E-001	4,947912732779128E-002
5,813664197921753E-001	5,152381024515573E-002
5,853306651115417E-001	5,399319645790324E-002
5,893533229827881E-001	5,692361979776994E-002
5,933748483657837E-001	6,050403204708532E-002
5,973539948463440E-001	6,480188068222092E-002
6,013681888580322E-001	7,007197918562524E-002
6,053314208984375E-001	7,636447847016159E-002
6,093863844871521E-001	8,399985764253798E-002
6,133585572242737E-001	9,328210717616203E-002
6,174095869064331E-001	1,047542070970935E-001
6,214342713356018E-001	1,186303174578864E-001
6,254763007164001E-001	1,352002439395341E-001
6,294459104537964E-001	1,552306567054758E-001
6,334494352340698E-001	1,794635759478607E-001
6,374062299728394E-001	2,084232856099258E-001
6,414787769317627E-001	2,434520221140053E-001
6,454896926879883E-001	2,853794788113904E-001
6,494805216789246E-001	3,350374078749763E-001
6,534925103187561E-001	3,943680583324123E-001
6,575215458869934E-001	4,643391823045500E-001
6,614708900451660E-001	5,462880857466237E-001
6,654829382896423E-001	6,421500445468201E-001
6,694493293762207E-001	7,528035006150100E-001
6,734613776206970E-001	8,793970331907253E-001
6,774712204933167E-001	1,024063107031745E+000
6,815533041954041E-001	1,192793687209996E+000
6,855400204658508E-001	1,374744284500769E+000
6,895381212234497E-001	1,575985759952843E+000
6,936084628105164E-001	1,797935298443377E+000
6,975803375244141E-001	2,037906642472580E+000
7,015921473503113E-001	2,296031296692469E+000
7,055553197860718E-001	2,572974993714261E+000
7,095832824707031E-001	2,867606538426024E+000
7,135761976242065E-001	3,177510877754408E+000
7,175362706184387E-001	3,503903956268644E+000
7,215832471847534E-001	3,845786933388005E+000
7,255390286445618E-001	4,200405253743654E+000
7,295893430709839E-001	4,569498878589002E+000
7,335588335990906E-001	4,950656374194178E+000
7,375867962837219E-001	5,341009967113564E+000
7,415584325790405E-001	5,744470924037628E+000
7,455662488937378E-001	6,156701089573560E+000
7,495569586753845E-001	6,575311561551992E+000
7,535637021064758E-001	6,998460409187153E+000
7,575662732124329E-001	7,431268479210445E+000
7,615528106689453E-001	7,873564251753891E+000
7,655923366546631E-001	8,321345083094513E+000
7,695471048355103E-001	8,774483733098783E+000
7,735719084739685E-001	9,246287046578999E+000
7,775436043739319E-001	9,728275255821721E+000
7,815300822257996E-001	1,019355481011529E+001
7,855591177940369E-001	1,066800475532774E+001
7,896506190299988E-001	1,118970554242600E+001
7,936266064643860E-001	1,167768499829607E+001
7,976651191711426E-001	1,216318659643196E+001
8,016505837440491E-001	1,265748132451050E+001
8,056721687316895E-001	1,313385985065206E+001
8,096746206283569E-001	1,366699754232184E+001
8,136557936668396E-001	1,425284532165304E+001
8,176382184028625E-001	1,472651544720145E+001
8,217085599899292E-001	1,521345002716092E+001
8,256609439849854E-001	1,596840902930884E+001
8,297240734100342E-001	1,646603738572318E+001
8,337106108665466E-001	1,699126951021407E+001
8,377110362052917E-001	1,750652345021567E+001
8,417092561721802E-001	1,803816170257238E+001
8,456883430480957E-001	1,863243689531642E+001
8,496918678283691E-001	1,912549804438270E+001
8,536933064460754E-001	1,958740038544682E+001
8,577329516410828E-001	2,014284285477231E+001
8,616992831230164E-001	2,060413041001277E+001
8,656986355781555E-001	2,117598355465198E+001
8,697222471237183E-001	2,195830130942011E+001
8,736908435821533E-001	2,241806131898682E+001
8,776636123657227E-001	2,290461812092326E+001
8,816713094711304E-001	2,343866316112528E+001
8,857205510139465E-001	2,428898553850968E+001
8,897011280059814E-001	2,482025063253604E+001
8,937190175056458E-001	2,523911177787659E+001
8,977214694023132E-001	2,585120636265299E+001
8,994074463844299E-001	2,599796570671930E+001