File: fig_si_ecsa/ZrO2/10.txt
C:\EC-lab data\Neethu\2024_10_01_Ni90Fe10_ZrO2\CV_ECSA\CV_ECSA_01_CV_C01.mpr
Ewe/V	<I>/mA
6,259723752737045E-002	-2,480905316770077E-002
7,493346184492111E-002	1,093747887016099E-004
8,694192767143250E-002	4,840031554018435E-004
9,895887970924377E-002	7,204676624168217E-004
1,109514310956001E-001	8,910656659584966E-004
1,229439750313759E-001	1,043257806954943E-003
1,349492520093918E-001	1,165526804007404E-003
1,469375640153885E-001	1,278320992683900E-003
1,589502692222595E-001	1,393372927141076E-003
1,709311455488205E-001	1,470145508267033E-003
1,829417496919632E-001	1,563928120596626E-003
1,949523091316223E-001	1,648796195796519E-003
2,069268375635147E-001	1,730605987311857E-003
2,189247012138367E-001	1,815807027284150E-003
2,309617996215820E-001	1,911415654090157E-003
2,429543286561966E-001	2,023074950961420E-003
2,549458146095276E-001	2,110580987560007E-003
2,669267058372498E-001	2,203220044369424E-003
2,789043784141541E-001	2,305652191151034E-003
2,909553050994873E-001	2,422020093136881E-003
3,032936751842499E-001	2,587074624359420E-003
3,152416944503784E-001	2,715292287272568E-003
3,272840976715088E-001	2,847654085026421E-003
3,392554521560669E-001	2,994383327690947E-003
3,512787222862244E-001	3,133905416621861E-003
3,630241453647614E-001	3,274156451273788E-003
3,526716232299805E-001	1,638389726900238E-003
3,406748175621033E-001	1,217483294129596E-003
3,286928534507751E-001	9,008608455284683E-004
3,166324198246002E-001	6,609669502116340E-004
3,047257959842682E-001	4,492079433475772E-004
2,926738262176514E-001	2,748745704755718E-004
2,806707024574280E-001	1,132137822055395E-004
2,686887383460999E-001	-1,148413923720198E-005
2,566993534564972E-001	-1,356171858717475E-004
2,447015196084976E-001	-2,370547830381582E-004
2,326718270778656E-001	-3,423524683005118E-004
2,206909358501434E-001	-4,257371283734480E-004
2,087090015411377E-001	-5,173102839998397E-004
1,967005282640457E-001	-5,997255213717151E-004
1,846878230571747E-001	-6,719591315737073E-004
1,726825684309006E-001	-7,517221852645509E-004
1,606730371713638E-001	-8,216063410886650E-004
1,486773043870926E-001	-8,883426911510204E-004
1,367038190364838E-001	-9,582470115750280E-004
1,246890276670456E-001	-1,022253085264107E-003
1,127134487032890E-001	-1,085036062620389E-003
1,007060408592224E-001	-1,141163325950469E-003
8,871137350797653E-002	-1,206493794597918E-003
7,670184969902039E-002	-1,263737568984247E-003
6,470612436532974E-002	-1,329910447600046E-003
7,279592007398605E-002	-1,262034061716228E-004
8,480968326330185E-002	1,798294097175845E-004
9,678208082914352E-002	3,908189687325397E-004
1,088340356945992E-001	5,718897314687206E-004
1,207756623625755E-001	7,320975604401363E-004
1,328064054250717E-001	8,557930700421656E-004
1,448042541742325E-001	9,795588312381774E-004
1,567692458629608E-001	1,082390630876440E-003
1,687692105770111E-001	1,183910961656317E-003
1,807808429002762E-001	1,274281496551812E-003
1,927935630083084E-001	1,368577186103382E-003
2,047723233699799E-001	1,453417126564702E-003
2,167988121509552E-001	1,546179915210270E-003
2,287924289703369E-001	1,627844643263862E-003
2,407966256141663E-001	1,727903993149222E-003
2,527881264686584E-001	1,811611998332581E-003
2,647912800312042E-001	1,910292289081827E-003
2,768262624740601E-001	2,000859286690013E-003
2,887944281101227E-001	2,105765498493341E-003
3,008018434047699E-001	2,217202160089207E-003
3,127148151397705E-001	2,347119156588129E-003
3,247752785682678E-001	2,468214994156295E-003
3,367911577224731E-001	2,603927649572679E-003
3,487995862960815E-001	2,731102382380460E-003
3,607468008995056E-001	2,887399483047025E-003
3,547051846981049E-001	1,403598282734123E-003
3,426914215087891E-001	9,789001293635620E-004
3,306829631328583E-001	6,798749723034079E-004
3,186362981796265E-001	4,391751871042782E-004
3,067105710506439E-001	2,460453561794313E-004
2,946639358997345E-001	7,417333895887179E-005
2,827031910419464E-001	-6,715654429179151E-005
2,706586718559265E-001	-1,981929595175117E-004
2,586852312088013E-001	-3,106307100814042E-004
2,467329800128937E-001	-4,124516364725070E-004
2,346746623516083E-001	-5,060118726894994E-004
2,226991057395935E-001	-5,997010643517967E-004
2,107097059488297E-001	-6,721635556998643E-004
1,986630707979202E-001	-7,472718370317363E-004
1,867029964923859E-001	-8,219813393741753E-004
1,746620386838913E-001	-8,956100650215765E-004
1,626907289028168E-001	-9,554145831821743E-004
1,507066488265991E-001	-1,027607231932322E-003
1,387024372816086E-001	-1,087518609387592E-003
1,266642659902573E-001	-1,156253940145551E-003
1,147162690758705E-001	-1,210862565332923E-003
1,027216017246246E-001	-1,269020145695389E-003
9,074284881353378E-002	-1,325278070133340E-003
7,869724929332733E-002	-1,392477919176191E-003
6,670681387186050E-002	-1,446744706400847E-003
7,078249007463455E-002	-3,420286844394234E-004
8,283338695764542E-002	9,541084462543603E-006
9,482380747795105E-002	2,358829139363179E-004
1,068004518747330E-001	4,150083521515767E-004
1,187972426414490E-001	5,785925386926800E-004
1,308226585388184E-001	7,047172257443873E-004
1,428290158510208E-001	8,322675944833040E-004
1,547738313674927E-001	9,385877297231858E-004
1,667727530002594E-001	1,046490362366762E-003
1,788077205419540E-001	1,138361757949937E-003
1,908151209354401E-001	1,235144828603586E-003
2,027811706066132E-001	1,319179855339893E-003
2,148108333349228E-001	1,413826390893925E-003
2,268065661191940E-001	1,499940332804626E-003
2,388044148683548E-001	1,582259143847128E-003
2,508043944835663E-001	1,672479585168829E-003
2,627884745597839E-001	1,760879767297649E-003
2,747905552387238E-001	1,859191647748022E-003
2,867958247661591E-001	1,967340188760630E-003
2,988181114196777E-001	2,063981527936881E-003
3,107942342758179E-001	2,185196856974418E-003
3,227501511573792E-001	2,304779600914730E-003
3,348031938076019E-001	2,434208254810610E-003
3,467915058135986E-001	2,560504021217905E-003
3,587871789932251E-001	2,695571423154675E-003
3,566825687885284E-001	1,349943802509827E-003
3,446878790855408E-001	8,883145872257726E-004
3,326656222343445E-001	5,941803054291214E-004
3,206985592842102E-001	3,573622908350908E-004
3,086677789688110E-001	1,582696601217671E-004
2,967091798782349E-001	-1,236986606304412E-005
2,846752703189850E-001	-1,519380341482952E-004
2,726668119430542E-001	-2,750989751621404E-004
2,607304751873016E-001	-3,813841399430218E-004
2,486923187971115E-001	-4,932908524534919E-004
2,367411404848099E-001	-5,836674249790286E-004
2,246966063976288E-001	-6,686431760398459E-004
2,126913368701935E-001	-7,542906439118313E-004
2,007104456424713E-001	-8,366622096218634E-004
1,886945366859436E-001	-9,044472981595744E-004
1,766977608203888E-001	-9,789093970472042E-004
1,646839976310730E-001	-1,043892680442055E-003
1,527147889137268E-001	-1,106837149159722E-003
1,407063156366348E-001	-1,157972413137844E-003
1,286925375461578E-001	-1,224407453129835E-003
1,167074292898178E-001	-1,282221250154113E-003
1,047010943293571E-001	-1,345748657142935E-003
9,272233396768570E-002	-1,392319962448065E-003
8,070219308137894E-002	-1,459688223500656E-003
6,870540231466293E-002	-1,511555808166223E-003
6,883800029754639E-002	-5,006368234414067E-004
8,084222674369812E-002	-1,147061783510349E-004
9,279977530241013E-002	1,262615522782185E-004
1,048039793968201E-001	3,184953006004445E-004
1,167774423956871E-001	4,702868072012350E-004
1,287975907325745E-001	6,175470850764576E-004
1,408134549856186E-001	7,313127775382270E-004
1,528102457523346E-001	8,488281956589259E-004
1,648218929767609E-001	9,472884936527655E-004
1,767889857292175E-001	1,047534487615510E-003
1,887634992599487E-001	1,135577953256736E-003
2,007931768894196E-001	1,225471730760073E-003
2,127645164728165E-001	1,308288678652998E-003
2,248175293207169E-001	1,393447848116652E-003
2,368217557668686E-001	1,483103371558374E-003
2,488153725862503E-001	1,581095473806339E-003
2,608037889003754E-001	1,662424372298386E-003
2,727643847465515E-001	1,764401347760146E-003
2,847526967525482E-001	1,857935414591338E-003
2,968205809593201E-001	1,966582651625182E-003
3,087664544582367E-001	2,070203267201719E-003
3,207568824291229E-001	2,191502358915323E-003
3,327430784702301E-001	2,305746988794351E-003
3,447780609130859E-001	2,433703704607763E-003
3,568162024021149E-001	2,559096366220967E-003
3,586514592170715E-001	1,358673561938943E-003
3,466843366622925E-001	8,581265807421287E-004
3,346652686595917E-001	5,424230941436575E-004
3,226408660411835E-001	3,038499904943360E-004
3,107231259346008E-001	9,700877744422249E-005
2,987056672573090E-001	-5,734027743570865E-005
2,866993248462677E-001	-2,082535733248340E-004
2,746897935867310E-001	-3,216809467653427E-004
2,626791894435883E-001	-4,344445361412997E-004
2,507290840148926E-001	-5,408964847514706E-004
2,386972755193710E-001	-6,400000976201305E-004
2,267110943794250E-001	-7,247445478747588E-004
2,146877795457840E-001	-8,057333477524860E-004
2,027036994695663E-001	-8,803662256266567E-004
1,906687468290329E-001	-9,510177938123147E-004
1,786793470382690E-001	-1,014435236424173E-003
1,667037904262543E-001	-1,085270118319725E-003
1,547123044729233E-001	-1,145528534026300E-003
1,427155137062073E-001	-1,216411262753863E-003
1,307155191898346E-001	-1,266095690004512E-003
1,187304183840752E-001	-1,328297434493258E-003
1,066752746701241E-001	-1,389835206619287E-003
9,474211931228638E-002	-1,454622391099327E-003
8,272942155599594E-002	-1,500850488136397E-003
7,067958265542984E-002	-1,557057035420758E-003
6,678425520658493E-002	-6,549947024554834E-004
7,881394028663635E-002	-2,212695174207283E-004
9,082771092653275E-002	3,670333082136836E-005
1,028202474117279E-001	2,318116516511919E-004
1,148043125867844E-001	3,875002304143740E-004
1,267947554588318E-001	5,330320392810464E-004
1,388413906097412E-001	6,569448936783445E-004
1,507766693830490E-001	7,718127287295855E-004
1,627734601497650E-001	8,664440536247410E-004
1,706734299659729E-001	8,309573839561874E-004