File: fig_si_ecsa/ZrO2/100.txt
C:\EC-lab data\Neethu\2024_10_01_Ni90Fe10_ZrO2\CV_ECSA\CV_ECSA_04_CV_C01.mpr
Ewe/V	<I>/mA
6,674079596996307E-002	-3,269604966044426E-002
8,068840950727463E-002	-5,686683145490357E-004
9,571172297000885E-002	1,823299585844833E-003
1,107063889503479E-001	2,519691368838225E-003
1,226352751255035E-001	3,264614285095981E-003
1,347180008888245E-001	3,513217304619815E-003
1,467020511627197E-001	4,114625142796695E-003
1,586893051862717E-001	4,253543874559305E-003
1,706563979387283E-001	4,739338958946383E-003
1,826850324869156E-001	4,781820532419573E-003
1,946521252393723E-001	5,265794605091086E-003
2,066733241081238E-001	5,286974466596615E-003
2,186934500932693E-001	5,790376770973063E-003
2,306923568248749E-001	5,862990202634463E-003
2,426785230636597E-001	6,287607967452577E-003
2,546519637107849E-001	6,393010916023456E-003
2,666763663291931E-001	6,873610678869449E-003
2,786912024021149E-001	7,047368348948008E-003
2,906869351863861E-001	7,430712312472887E-003
3,027091920375824E-001	7,716232859012177E-003
3,146189749240875E-001	8,100533175618568E-003
3,266815245151520E-001	8,427362632776075E-003
3,386634588241577E-001	8,998547295050258E-003
3,506263494491577E-001	9,218138061340975E-003
3,626666665077209E-001	9,734963264135296E-003
3,537091016769409E-001	-9,387078143971607E-005
3,416932225227356E-001	-1,246085129120425E-003
3,296698927879334E-001	-2,121051911672112E-003
3,176645934581757E-001	-2,526636619424802E-003
3,056911528110504E-001	-3,066380584641600E-003
2,937176823616028E-001	-3,298803246151580E-003
2,816847860813141E-001	-3,793460870939361E-003
2,696954309940338E-001	-3,821818906645694E-003
2,577198743820190E-001	-4,240078877450685E-003
2,456933706998825E-001	-4,280984855641778E-003
2,337559908628464E-001	-4,670532358027717E-003
2,217231392860413E-001	-4,728005533656335E-003
2,097146809101105E-001	-5,045937525816654E-003
1,977327466011047E-001	-5,201843997686698E-003
1,857645660638809E-001	-5,371399729483525E-003
1,737168729305267E-001	-5,531987440109395E-003
1,616691499948502E-001	-5,868733280901019E-003
1,496904045343399E-001	-5,917878227693199E-003
1,376713365316391E-001	-6,245354984356591E-003
1,256883144378662E-001	-6,264539813047205E-003
1,137222871184349E-001	-6,621868627310790E-003
1,017562597990036E-001	-6,747583393007511E-003
8,971916139125824E-002	-6,955742019070149E-003
7,770644873380661E-002	-7,063037640667361E-003
6,567570567131042E-002	-7,434562654250618E-003
6,995929777622223E-002	5,245770874530032E-004
8,193062245845795E-002	1,186671808176878E-003
9,389664977788925E-002	2,044818193806149E-003
1,058902665972710E-001	2,366817826138401E-003
1,178828179836273E-001	2,989391738083224E-003
1,299411505460739E-001	3,120102302192340E-003
1,419124752283096E-001	3,699722497508967E-003
1,538615226745605E-001	3,825843679806006E-003
1,658975630998611E-001	4,337636123737970E-003
1,778784543275833E-001	4,410990424528603E-003
1,898943483829498E-001	4,828096970514825E-003
2,018667459487915E-001	4,964658069689515E-003
2,138698846101761E-001	5,337415702848002E-003
2,258910685777664E-001	5,536928141534905E-003
2,378603070974350E-001	5,856648275463769E-003
2,499366551637650E-001	6,011028746999951E-003
2,619217932224274E-001	6,464465832929506E-003
2,739026546478271E-001	6,629054355774648E-003
2,859068810939789E-001	7,123694175081491E-003
2,978813648223877E-001	7,246612496803417E-003
3,098325431346893E-001	7,842583213965165E-003
3,218845427036285E-001	8,070999121021827E-003
3,338696658611298E-001	8,669896450656883E-003
3,459036350250244E-001	8,842172124584803E-003
3,578600883483887E-001	9,438904754966268E-003
3,576892316341400E-001	1,190224771107756E-003
3,457422852516174E-001	-1,244894883307597E-003
3,336648941040039E-001	-1,913881483435236E-003
3,216681182384491E-001	-2,631878808945963E-003
3,096830248832703E-001	-2,874946386428837E-003
2,977021038532257E-001	-3,392856191163036E-003
2,857095897197723E-001	-3,645224333821605E-003
2,737021744251251E-001	-3,976503218533808E-003
2,617053687572479E-001	-4,185870252210084E-003
2,497287392616272E-001	-4,412827006793414E-003
2,376757413148880E-001	-4,575805814965861E-003
2,257266640663147E-001	-4,944647751674171E-003
2,137139588594437E-001	-4,981185422366252E-003
2,017298936843872E-001	-5,344770083158631E-003
1,897224932909012E-001	-5,386474469560178E-003
1,777161657810211E-001	-5,747982945144420E-003
1,656949669122696E-001	-5,736669992378020E-003
1,537119746208191E-001	-6,019325449516226E-003
1,417045593261719E-001	-6,102386786854652E-003
1,297459453344345E-001	-6,455980823375264E-003
1,176855042576790E-001	-6,512909347899651E-003
1,057078167796135E-001	-6,827411933449573E-003
9,371207654476166E-002	-6,890332112460637E-003
8,172800391912460E-002	-7,131212015843220E-003
6,975031644105911E-002	-7,338702090540522E-003
6,583376973867416E-002	1,334628937658844E-003
7,786238938570023E-002	1,070236705143342E-003
8,991435170173645E-002	1,575310679577856E-003
1,018803790211678E-001	2,326280134891738E-003
1,138548925518990E-001	2,600013592301484E-003
1,258856207132339E-001	3,146205600084318E-003
1,378803104162216E-001	3,417963722313289E-003
1,498887687921524E-001	3,807352288883237E-003
1,618611514568329E-001	4,068039409402351E-003
1,738897711038589E-001	4,404362201765065E-003
1,858886927366257E-001	4,537051829376873E-003
1,978929191827774E-001	5,013053166799675E-003
2,098716795444489E-001	5,089992190429876E-003
2,218907624483109E-001	5,547291987265161E-003
2,339066565036774E-001	5,613476656435523E-003
2,459235936403275E-001	6,079975651826122E-003
2,578949034214020E-001	6,242141165178832E-003
2,699320316314697E-001	6,667252264176388E-003
2,818694114685059E-001	6,823448651428199E-003
2,938661873340607E-001	7,344294365288486E-003
3,058746755123138E-001	7,521405238447992E-003
3,178608417510986E-001	8,017756730421599E-003
3,298735320568085E-001	8,309705081855009E-003
3,418247103691101E-001	8,735384634443732E-003
3,538469672203064E-001	9,201307171477130E-003
3,614541590213776E-001	2,657049852789195E-003
3,496779799461365E-001	-8,345386191245356E-004
3,376684486865997E-001	-1,814862502518118E-003
3,256992101669312E-001	-2,483585844149472E-003
3,137331902980804E-001	-2,857906813207786E-003
3,017278909683228E-001	-3,245862906421975E-003
2,896865606307983E-001	-3,701565359329417E-003
2,776961326599121E-001	-3,823925189458857E-003
2,657089233398438E-001	-4,223067754436573E-003
2,536834776401520E-001	-4,297053052141564E-003
2,417333424091339E-001	-4,659822250687267E-003
2,296686470508575E-001	-4,665932656886661E-003
2,176899015903473E-001	-5,106535212285539E-003
2,056888788938522E-001	-5,162022230554911E-003
1,936973929405212E-001	-5,489025202728530E-003
1,816995292901993E-001	-5,506875007591172E-003
1,696931719779968E-001	-5,838039018271957E-003
1,577069908380508E-001	-5,959417067869136E-003
1,457186788320541E-001	-6,186588996772296E-003
1,337229460477829E-001	-6,385655710295791E-003
1,216816157102585E-001	-6,492033602019846E-003
1,096688956022263E-001	-6,639912750364987E-003
9,773894399404526E-002	-6,999224590092321E-003
8,569016307592392E-002	-7,053880397304743E-003
7,368912547826767E-002	-7,418356260637249E-003
6,328464299440384E-002	-7,378246169537306E-003
7,391189783811569E-002	1,642432450353524E-004
8,590233325958252E-002	1,439197322017412E-003
9,786412119865417E-002	2,061491668023850E-003
1,099044084548950E-001	2,545412497460771E-003
1,218555942177773E-001	2,851380903141236E-003
1,338863074779511E-001	3,447338579563725E-003
1,458884179592133E-001	3,528896850790872E-003
1,578937023878098E-001	4,032471134349992E-003
1,698872894048691E-001	4,148177497780958E-003
1,818597018718719E-001	4,689113386120894E-003
1,938692480325699E-001	4,684227116538556E-003
2,058872431516647E-001	5,179047391720829E-003
2,178850919008255E-001	5,217116651894893E-003
2,298744767904282E-001	5,696989441882280E-003
2,418977618217468E-001	5,799523853460817E-003
2,538351714611053E-001	6,223879675720474E-003
2,658425569534302E-001	6,370018637325232E-003
2,778786122798920E-001	6,789594346224087E-003
2,898764610290527E-001	7,045794376204451E-003
3,018997907638550E-001	7,384741853052740E-003
3,139443099498749E-001	7,709433046127562E-003
3,258796036243439E-001	8,306866662072365E-003
3,379113674163818E-001	8,537309394644907E-003
3,498763442039490E-001	9,052246602045164E-003
3,618349730968475E-001	9,377372448701286E-003
3,537006080150604E-001	-3,212781614144594E-004
3,416931927204132E-001	-1,468017124655793E-003
3,296677768230438E-001	-2,302550529647198E-003
3,177049160003662E-001	-2,713462035697167E-003
3,056848049163818E-001	-3,211812084474425E-003
2,937049865722656E-001	-3,457129039209882E-003
2,817219793796539E-001	-3,952283728115916E-003
2,696753144264221E-001	-3,989657904538830E-003
2,577177584171295E-001	-4,339511569721947E-003
2,457294315099716E-001	-4,482973241263385E-003
2,336775064468384E-001	-4,832839406541695E-003
2,216817736625671E-001	-4,901751124432627E-003
2,097083181142807E-001	-5,207345836323735E-003
1,977093964815140E-001	-5,296851961045624E-003
1,856860667467117E-001	-5,475433997263376E-003
1,736521571874619E-001	-5,631319752865224E-003
1,617041677236557E-001	-5,988443296195725E-003
1,497116088867188E-001	-6,018469199463833E-003
1,377275437116623E-001	-6,364403735965892E-003
1,257212013006210E-001	-6,328752366648045E-003
1,137435138225555E-001	-6,722390766905513E-003
1,017010957002640E-001	-6,817948651587358E-003
8,969686925411224E-002	-7,102309211202539E-003
7,771599292755127E-002	-7,155125735961415E-003
6,572874635457993E-002	-7,505106878751444E-003
6,995929777622223E-002	3,951310727453982E-004
8,193062245845795E-002	1,126084435276828E-003
9,392742067575455E-002	1,926948851481335E-003
1,058796569705009E-001	2,298579751166274E-003
1,178976744413376E-001	2,898274629842500E-003
1,299071758985519E-001	2,990369828492288E-003
1,418817192316055E-001	3,539667136768301E-003
1,539113968610764E-001	3,700627938896008E-003
1,659092605113983E-001	4,211753783036148E-003
1,706734299659729E-001	4,356545861810446E-003