File: fig_si_ecsa/ZrO2/20.txt
C:\EC-lab data\Neethu\2024_10_01_Ni90Fe10_ZrO2\CV_ECSA\CV_ECSA_02_CV_C01.mpr
Ewe/V	<I>/mA
6,420119106769562E-002	-3,700117021799088E-002
7,645680010318756E-002	-2,687625111051328E-003
8,843131363391876E-002	-1,992060782632268E-003
1,004228070378304E-001	-1,556458608724321E-003
1,123814135789871E-001	-1,313768637879142E-003
1,244100332260132E-001	-1,029509801204158E-003
1,363739371299744E-001	-9,722188910717237E-004
1,483802646398544E-001	-8,336265042422145E-004
1,604088991880417E-001	-6,619954475581826E-004
1,723876446485519E-001	-5,304800529470554E-004
1,844099164009094E-001	-3,678683610309616E-004
1,964364051818848E-001	-3,836022039683511E-004
2,084586322307587E-001	-2,151603202609886E-004
2,203886359930038E-001	-8,483573207300845E-005
2,323843389749527E-001	6,847652487404422E-005
2,444129735231400E-001	2,944598374799366E-004
2,563821673393250E-001	3,700106567015998E-004
2,683354914188385E-001	5,236589150212235E-004
2,804203331470490E-001	6,901112156238350E-004
2,923874258995056E-001	9,374699108324995E-004
3,043842017650604E-001	1,093485033273373E-003
3,163428008556366E-001	1,355914430070652E-003
3,283459842205048E-001	1,570098830976953E-003
3,403883874416351E-001	1,786933067773201E-003
3,523809313774109E-001	2,036537767573334E-003
3,630910813808441E-001	1,850665834111472E-003
3,517306447029114E-001	2,757188633781711E-003
3,397911190986633E-001	2,266223254730863E-003
3,277190327644348E-001	1,957656304781532E-003
3,157636225223541E-001	1,795475019797001E-003
3,037816882133484E-001	1,611331662742382E-003
2,917785048484802E-001	1,530216000598252E-003
2,797679007053375E-001	1,326848956186615E-003
2,677562832832336E-001	1,220290218413913E-003
2,558146417140961E-001	1,106029631585076E-003
2,437881529331207E-001	1,047500750920096E-003
2,317892163991928E-001	9,426427681302370E-004
2,198147326707840E-001	8,321285655694256E-004
2,078189849853516E-001	7,535477256268470E-004
1,957712769508362E-001	6,659209053191686E-004
1,838020533323288E-001	5,485624456519486E-004
1,718392074108124E-001	3,802591917418698E-004
1,597946882247925E-001	2,510870959600586E-004
1,478116810321808E-001	1,974687873758669E-004
1,358074545860291E-001	4,331356260915188E-005
1,237576305866241E-001	-6,877765059066935E-005
1,117906942963600E-001	-1,675598759147958E-004
9,980858862400055E-002	-2,670307678642892E-004
8,779270946979523E-002	-3,764869069384624E-004
7,584153115749359E-002	-5,132547634932230E-004
6,375668942928314E-002	-6,142309121059970E-004
7,281076908111572E-002	-2,407015235500388E-003
8,481923490762711E-002	-1,980556429569125E-003
9,683723747730255E-002	-1,756173571047165E-003
1,087990403175354E-001	-1,492432513175497E-003
1,208021864295006E-001	-1,278315910355932E-003
1,328021585941315E-001	-1,163409767859438E-003
1,448084861040115E-001	-1,022872063576535E-003
1,567671149969101E-001	-9,367484267554793E-004
1,687734574079514E-001	-7,328655496571159E-004
1,807681173086166E-001	-6,459520861796953E-004
1,927840262651443E-001	-5,899108879627111E-004
2,047712355852127E-001	-3,838203099938379E-004
2,167669832706451E-001	-2,824993287638924E-004
2,287956029176712E-001	-8,143135524581635E-005
2,408114969730377E-001	-8,716056712459086E-006
2,527626752853394E-001	2,063113445526848E-004
2,647700905799866E-001	3,395391996255724E-004
2,767615616321564E-001	5,581950044154828E-004
2,887499034404755E-001	7,054824662999504E-004
3,008050024509430E-001	9,154961408057748E-004
3,127901256084442E-001	1,164867976950954E-003
3,248208463191986E-001	1,355994007149594E-003
3,368038833141327E-001	1,581426098507817E-003
3,488250374794006E-001	1,786063495240311E-003
3,607899248600006E-001	2,096871075080407E-003
3,547285199165344E-001	2,803850656669549E-003
3,427709639072418E-001	2,348234836711486E-003
3,307254314422607E-001	1,922669265796794E-003
3,187508881092072E-001	1,788082680554401E-003
3,067678809165955E-001	1,560445793778075E-003
2,948155999183655E-001	1,442456555634165E-003
2,828166782855988E-001	1,289064683010953E-003
2,707817256450653E-001	1,317372659522570E-003
2,588379979133606E-001	1,146195495999161E-003
2,467934340238571E-001	1,032539203583415E-003
2,348327189683914E-001	9,227912718146117E-004
2,227765172719955E-001	8,013034069807440E-004
2,107670009136200E-001	6,442271553708089E-004
1,988158226013184E-001	6,148256536478089E-004
1,868031173944473E-001	4,712756103631196E-004
1,747967749834061E-001	4,393775745349425E-004
1,627670973539352E-001	2,544531620919273E-004
1,507809013128281E-001	1,997973221745247E-004
1,387586444616318E-001	9,653395242518515E-005
1,267989873886108E-001	-8,892395789172522E-005
1,148117482662201E-001	-1,285916698550325E-004
1,027969270944595E-001	-3,216276813789059E-004
9,078739583492279E-002	-4,082759251020810E-004
7,883303612470627E-002	-5,544699266061357E-004
6,677789241075516E-002	-7,215323849541857E-004
6,985957175493240E-002	-2,512020603651972E-003
8,182135224342346E-002	-2,159836494818724E-003
9,380754083395004E-002	-1,912371523101478E-003
1,057926714420319E-001	-1,625347987636919E-003
1,177693009376526E-001	-1,419339929607645E-003
1,297936737537384E-001	-1,363269285556507E-003
1,418021470308304E-001	-1,188348769910931E-003
1,537671089172363E-001	-9,602991254487950E-004
1,657925397157669E-001	-8,453989356624948E-004
1,778010129928589E-001	-7,696830615107810E-004
1,897787004709244E-001	-5,837770847089492E-004
2,017754912376404E-001	-5,015088405613162E-004
2,138221710920334E-001	-4,473953588078261E-004
2,257924079895020E-001	-1,799492606551209E-004
2,377754300832748E-001	-7,966579789861375E-005
2,498284578323364E-001	8,388910644001678E-005
2,618347704410553E-001	2,600033208013715E-004
2,737912833690643E-001	4,290111273129930E-004
2,858294248580933E-001	5,725965100248660E-004
2,977827191352844E-001	7,935897236637651E-004
3,097487688064575E-001	9,525671227695286E-004
3,217497766017914E-001	1,239791077516639E-003
3,338017463684082E-001	1,487910171624237E-003
3,458070456981659E-001	1,668778886604980E-003
3,577751815319061E-001	1,917561213741908E-003
3,577804863452911E-001	2,850910788386798E-003
3,457147777080536E-001	2,329924779751816E-003
3,337848186492920E-001	2,010287083572211E-003
3,217583000659943E-001	1,692226352975862E-003
3,097678720951080E-001	1,521727086112729E-003
2,977540791034698E-001	1,407675859472539E-003
2,857912480831146E-001	1,328546692228106E-003
2,737870514392853E-001	1,218277023562459E-003
2,618443071842194E-001	1,161363414953315E-003
2,498252540826797E-001	9,942391408441376E-004
2,378316372632980E-001	9,025034962548893E-004
2,257765233516693E-001	7,490586049622534E-004
2,137935012578964E-001	6,759307066709509E-004
2,018041461706162E-001	6,182211986756371E-004
1,897744685411453E-001	5,413263427019215E-004
1,777575314044952E-001	3,738689525494832E-004
1,657925397157669E-001	3,023739500139090E-004
1,537915170192719E-001	2,216296028378834E-004
1,418233662843704E-001	8,959255846666212E-005
1,297968477010727E-001	-2,195925214281205E-005
1,177512779831886E-001	-1,986041113152875E-004
1,058382838964462E-001	-2,401965341589487E-004
9,375555813312531E-002	-4,309158080652064E-004
8,183409273624420E-002	-4,865620230913442E-004
6,982774287462235E-002	-6,320162093389732E-004
6,681714206933975E-002	-2,736553815642164E-003
7,886167615652084E-002	-2,164298885165616E-003
9,084785729646683E-002	-1,907785176593244E-003
1,028255596756935E-001	-1,684115593350176E-003
1,148064434528351E-001	-1,535466292740174E-003
1,267830729484558E-001	-1,351936101720505E-003
1,387713849544525E-001	-1,110416342498864E-003
1,507883369922638E-001	-1,115306269369928E-003
1,627967953681946E-001	-8,947138739872421E-004
1,747882813215256E-001	-8,197555083481918E-004
1,867787092924118E-001	-5,747075670283416E-004
1,988020241260529E-001	-4,830986625974140E-004
2,108083814382553E-001	-3,634941995861235E-004
2,227998524904251E-001	-2,920876108081808E-004
2,348274290561676E-001	-1,484756407295318E-004
2,468072474002838E-001	-7,299850491798921E-005
2,588167488574982E-001	1,906334882227799E-004
2,707743048667908E-001	3,393181301126562E-004
2,827859520912170E-001	5,877438184143098E-004
2,947816848754883E-001	8,317011441384345E-004
3,067848682403564E-001	9,764891833541432E-004
3,187763392925262E-001	1,120973600618694E-003
3,308039009571075E-001	1,393277218021974E-003
3,428166210651398E-001	1,616967270837014E-003
3,548197448253632E-001	1,831623341584213E-003
3,607774674892426E-001	3,147216457754010E-003
3,487762808799744E-001	2,381901529243228E-003
3,367890417575836E-001	1,937448116526259E-003
3,247953951358795E-001	1,804243826461098E-003
3,127763569355011E-001	1,609465924250094E-003
3,007689416408539E-001	1,488243366650380E-003
2,887817025184631E-001	1,322766636467015E-003
2,767997384071350E-001	1,165537057979101E-003
2,647923529148102E-001	1,049051084313156E-003
2,527849376201630E-001	9,954475469082097E-004
2,407732903957367E-001	8,136181205810745E-004
2,287648469209671E-001	7,513370361872770E-004
2,167988121509552E-001	6,998940338723534E-004
2,047913968563080E-001	5,876141944167186E-004
1,927872151136398E-001	4,784115499205654E-004
1,807416081428528E-001	4,467316158061931E-004
1,688158810138702E-001	3,637619126864058E-004
1,567830145359039E-001	1,341560884476950E-004
1,448381990194321E-001	6,300590786378508E-005
1,328106373548508E-001	7,389701415958265E-005
1,208170428872108E-001	-8,385717813389458E-005
1,088722348213196E-001	-2,161831078713778E-004
9,679692983627319E-002	-4,090098399232118E-004
8,479271084070206E-002	-5,033540158163119E-004
7,280864566564560E-002	-5,793440432676636E-004
6,380124390125275E-002	-3,166703119657339E-003
7,580333203077316E-002	-2,310882125491975E-003
8,780013769865036E-002	-2,008189614604854E-003
9,977782517671585E-002	-1,829313372983555E-003
1,117629036307335E-001	-1,459393117458789E-003
1,237767264246941E-001	-1,404587577174723E-003
1,357734948396683E-001	-1,213446823520049E-003
1,478244066238403E-001	-1,109649969967666E-003
1,597745418548584E-001	-9,436810289739864E-004
1,705015748739243E-001	2,378417819272720E-003