File: fig_si_ecsa/ZrO2/200.txt
C:\EC-lab data\Neethu\2024_10_01_Ni90Fe10_ZrO2\CV_ECSA\CV_ECSA_05_CV_C01.mpr
Ewe/V	<I>/mA
6,970047950744629E-002	-2,962477877736092E-002
8,071681112051010E-002	2,236897306064831E-003
9,864677488803864E-002	4,585057808443802E-003
1,106686368584633E-001	5,596426732402304E-003
1,286888569593430E-001	6,688757298103493E-003
1,406799256801605E-001	6,911213402666115E-003
1,526679247617722E-001	7,563598655410314E-003
1,646589785814285E-001	7,848657301854661E-003
1,766092330217361E-001	8,377639191414987E-003
1,886666864156723E-001	8,535690715854687E-003
2,006351798772812E-001	9,169576446187100E-003
2,127143591642380E-001	9,398934297512984E-003
2,246802151203156E-001	9,661015346037805E-003
2,367003709077835E-001	9,973965572168130E-003
2,487126886844635E-001	1,053700064072804E-002
2,606572806835175E-001	1,082843410304946E-002
2,726540267467499E-001	1,147044503456776E-002
2,846819460391998E-001	1,173479766971884E-002
2,966981530189514E-001	1,239084479725125E-002
3,086458146572113E-001	1,288796322891853E-002
3,206475377082825E-001	1,348889760534489E-002
3,326626718044281E-001	1,405865684769786E-002
3,446516692638397E-001	1,486036237838564E-002
3,566257357597351E-001	1,529703169944691E-002
3,596775531768799E-001	3,134875649948307E-004
3,476441502571106E-001	-3,180469799229715E-003
3,357045650482178E-001	-4,499091407998757E-003
3,236885368824005E-001	-5,584029488249025E-003
3,116775453090668E-001	-5,980338977204361E-003
2,997433245182037E-001	-6,607640956396835E-003
2,877358198165894E-001	-6,914911286168543E-003
2,756813764572144E-001	-7,221407068672372E-003
2,637163698673248E-001	-7,532323594535845E-003
2,517144381999969E-001	-8,079638306794895E-003
2,396791428327560E-001	-8,113952372282667E-003
2,277206182479858E-001	-8,610427246987296E-003
2,156974524259567E-001	-8,710912327925029E-003
2,037124931812286E-001	-9,123825368491913E-003
1,916832327842712E-001	-9,233541385087390E-003
1,796860992908478E-001	-9,788480951514938E-003
1,676833331584930E-001	-9,745078933271756E-003
1,556957364082336E-001	-1,020884573550901E-002
1,437203139066696E-001	-1,028736525983151E-002
1,317158043384552E-001	-1,075816426964591E-002
1,197121515870094E-001	-1,075345386793328E-002
1,077519059181213E-001	-1,126638822692756E-002
9,574435651302338E-002	-1,140895028683273E-002
8,371034264564514E-002	-1,161326202600316E-002
7,172016054391861E-002	-1,189801001667299E-002
6,309369951486588E-002	-6,550160236656666E-003
7,498636841773987E-002	2,745765864267981E-003
8,698035031557083E-002	4,139755720762389E-003
9,897682070732117E-002	4,635972970074502E-003
1,109915524721146E-001	5,498791249287344E-003
1,229643747210503E-001	5,958781402865584E-003
1,350168883800507E-001	6,465185433626175E-003
1,469950675964355E-001	6,896815808194449E-003
1,589919775724411E-001	7,481764632836500E-003
1,709838807582855E-001	7,688604338434980E-003
1,829724460840225E-001	8,217305073033102E-003
1,949543952941895E-001	8,448656259529175E-003
2,069496214389801E-001	8,952016089492441E-003
2,190000563859940E-001	9,236299607911641E-003
2,309516817331314E-001	9,848044243762679E-003
2,430137544870377E-001	9,926381538800542E-003
2,549757659435272E-001	1,053937135831172E-002
2,669585645198822E-001	1,075161622761897E-002
2,789213955402374E-001	1,138434204862598E-002
2,909726500511169E-001	1,168677223256016E-002
3,029682934284210E-001	1,239469378671622E-002
3,149635791778564E-001	1,296965863598002E-002
3,269624412059784E-001	1,341350068320354E-002
3,389756083488464E-001	1,412348173818665E-002
3,509306907653809E-001	1,499316524859748E-002
3,628405332565308E-001	1,545959145433325E-002
3,526739478111267E-001	-2,347491727426165E-003
3,406716585159302E-001	-4,216903461264833E-003
3,286673426628113E-001	-5,295987207911964E-003
3,166733384132385E-001	-5,946069678943969E-003
3,047027587890625E-001	-6,564326727212480E-003
2,927142977714539E-001	-6,935154136706180E-003
2,807193398475647E-001	-7,434067520245502E-003
2,686909735202789E-001	-7,614496543448493E-003
2,566985785961151E-001	-7,984051713719950E-003
2,447300851345062E-001	-8,245756633600235E-003
2,327351570129395E-001	-8,559719125266596E-003
2,207063585519791E-001	-8,744554514454321E-003
2,087174654006958E-001	-9,160599819469192E-003
1,967086195945740E-001	-9,295840525985755E-003
1,847071349620819E-001	-9,526970448860056E-003
1,727017611265183E-001	-9,714012733308061E-003
1,606872677803040E-001	-1,003385651148908E-002
1,487257182598114E-001	-1,025249373560658E-002
1,367042958736420E-001	-1,074703682256353E-002
1,246919780969620E-001	-1,089762182494847E-002
1,127286851406097E-001	-1,118953285533117E-002
1,007319986820221E-001	-1,142816593677373E-002
8,870925754308701E-002	-1,171327593494259E-002
7,674510031938553E-002	-1,193029070732746E-002
6,475275754928589E-002	-1,231236933083639E-002
6,997192651033401E-002	1,864595064034802E-003
8,201404660940170E-002	3,511292143111466E-003
9,398853033781052E-002	4,388255408072014E-003
1,059775277972221E-001	5,183095744264996E-003
1,179906055331230E-001	5,683769803315808E-003
1,299887299537659E-001	6,344191540056693E-003
1,419988870620728E-001	6,639499637379288E-003
1,539999395608902E-001	7,124416574499810E-003
1,659403890371323E-001	7,538614642212255E-003
1,779455691576004E-001	7,977151852015724E-003
1,900009661912918E-001	8,327295685692515E-003
2,019601017236710E-001	8,688291818860161E-003
2,139880955219269E-001	9,028546394208969E-003
2,259696125984192E-001	9,478772428337834E-003
2,379657030105591E-001	9,718531773061201E-003
2,499509453773499E-001	1,009475800943308E-002
2,619644403457642E-001	1,059696939062078E-002
2,739413976669312E-001	1,108625896639474E-002
2,859955430030823E-001	1,150854046120561E-002
2,979787290096283E-001	1,214339200447762E-002
3,099606931209564E-001	1,263485501745576E-002
3,219327330589294E-001	1,320682301246220E-002
3,339394032955170E-001	1,385134427040280E-002
3,459981679916382E-001	1,460656594612050E-002
3,579562008380890E-001	1,516306823759811E-002
3,576855063438416E-001	-1,066696432832508E-003
3,457068800926209E-001	-3,681835801375120E-003
3,337054252624512E-001	-4,906833349907713E-003
3,216566443443298E-001	-5,769402534813534E-003
3,097359538078308E-001	-6,346088307426806E-003
2,977058589458466E-001	-6,839683694620759E-003
2,857195734977722E-001	-7,223606556594438E-003
2,736907601356506E-001	-7,662977341004240E-003
2,617217898368835E-001	-7,792357618034790E-003
2,497398704290390E-001	-8,038746333113467E-003
2,377149760723114E-001	-8,407281486308232E-003
2,256835699081421E-001	-8,734837321340325E-003
2,137267887592316E-001	-8,947591932899873E-003
2,016866952180862E-001	-9,240356285772557E-003
1,897051781415939E-001	-9,536846262562931E-003
1,777110844850540E-001	-9,688380224112940E-003
1,657126396894455E-001	-9,993269877668340E-003
1,536960005760193E-001	-1,017437119067333E-002
1,416884511709213E-001	-1,041744711537002E-002
1,297069489955902E-001	-1,079097416632890E-002
1,176881119608879E-001	-1,102754490371312E-002
1,057274341583252E-001	-1,132164037980227E-002
9,374375641345978E-002	-1,154095657230665E-002
8,171842247247696E-002	-1,188262848104799E-002
6,972865760326386E-002	-1,212348260626392E-002
6,499152630567551E-002	1,399152072627146E-003
7,696474343538284E-002	2,839812134010095E-003
8,901268988847733E-002	3,955171464519448E-003
1,009979620575905E-001	4,763264331418410E-003
1,129828095436096E-001	5,451124600649180E-003
1,250112205743790E-001	5,992261717002971E-003
1,369533091783524E-001	6,560276814485885E-003
1,489838361740112E-001	6,866000221397495E-003
1,609607934951782E-001	7,291727482563320E-003
1,729892492294312E-001	7,723399692543376E-003
1,849799007177353E-001	8,122082456042262E-003
1,969605833292007E-001	8,459631670437201E-003
2,089769840240479E-001	8,857367720496723E-003
2,209468781948090E-001	9,199760963225445E-003
2,330114543437958E-001	9,561323556029174E-003
2,449842542409897E-001	9,971598538433463E-003
2,569313049316406E-001	1,031563243035955E-002
2,689626514911652E-001	1,078358067309682E-002
2,809421122074127E-001	1,127017215802209E-002
2,929473221302032E-001	1,175800150636151E-002
3,049645423889160E-001	1,238742773721635E-002
3,169116675853729E-001	1,293124877073834E-002
3,289296329021454E-001	1,361394833640428E-002
3,409775495529175E-001	1,416244895583740E-002
3,529555499553680E-001	1,477048543463093E-002
3,627169430255890E-001	1,110591126338597E-003
3,507055342197418E-001	-2,969505672057421E-003
3,387169539928436E-001	-4,494101894361724E-003
3,266872465610504E-001	-5,306353732996039E-003
3,146969974040985E-001	-6,048724985110139E-003
3,026505112648010E-001	-6,721900705666806E-003
2,906937301158905E-001	-7,039256441533890E-003
2,786900699138641E-001	-7,487011985920777E-003
2,667320370674133E-001	-7,660929818319506E-003
2,546867430210114E-001	-8,103512403729182E-003
2,427720576524735E-001	-8,292869924348051E-003
2,306915968656540E-001	-8,685452843647809E-003
2,186988145112991E-001	-8,758546739045407E-003
2,067294567823410E-001	-9,206576576037739E-003
1,946975737810135E-001	-9,326797674062082E-003
1,827247738838196E-001	-9,733749338755107E-003
1,707332730293274E-001	-9,802240954906512E-003
1,587118357419968E-001	-1,034857223947418E-002
1,467233896255493E-001	-1,037190376436312E-002
1,346919685602188E-001	-1,060587113831638E-002
1,227104514837265E-001	-1,081144135010120E-002
1,107411086559296E-001	-1,124840990682553E-002
9,871272742748261E-002	-1,144652829547835E-002
8,672905713319778E-002	-1,181600317679768E-002
7,471889257431030E-002	-1,199701066715615E-002
6,326554715633392E-002	-1,235717441886663E-002
7,378008216619492E-002	2,485017272627616E-003
8,891840279102325E-002	3,328562978675245E-003
1,037384644150734E-001	4,946919676473531E-003
1,157573387026787E-001	5,673225493291815E-003
1,277571469545364E-001	6,169184937275356E-003
1,397780925035477E-001	6,530336699538383E-003
1,517920047044754E-001	7,006713821006663E-003
1,637793481349945E-001	7,536339689661137E-003
1,705206781625748E-001	7,721949368715286E-003