File: fig_si_ecsa/ZrO2/300.txt
C:\EC-lab data\Neethu\2024_10_01_Ni90Fe10_ZrO2\CV_ECSA\CV_ECSA_06_CV_C01.mpr
Ewe/V	<I>/mA
7,267925143241882E-002	-2,714688330888748E-002
8,364915847778320E-002	4,370709458453352E-003
9,569729119539261E-002	6,883517349160680E-003
1,166372075676918E-001	8,421091598878216E-003
1,286668926477432E-001	9,375812788554594E-003
1,451803892850876E-001	1,089553786704611E-002
1,616409569978714E-001	1,082342815510251E-002
1,736311465501785E-001	1,137331530238347E-002
1,856487393379211E-001	1,148927293846405E-002
1,976516991853714E-001	1,266264415656532E-002
2,096438109874725E-001	1,249358877903431E-002
2,216467559337616E-001	1,337857383271815E-002
2,336159795522690E-001	1,343485470776321E-002
2,456100136041641E-001	1,426260330275309E-002
2,576307654380798E-001	1,436828920510985E-002
2,696362733840942E-001	1,524968751546116E-002
2,816048264503479E-001	1,554726335659021E-002
2,936657369136810E-001	1,666280632731892E-002
3,055961132049561E-001	1,681456474822574E-002
3,176168799400330E-001	1,795714369194083E-002
3,296599090099335E-001	1,855371945421208E-002
3,416329324245453E-001	1,969903394880629E-002
3,535990118980408E-001	2,020934271616476E-002
3,629643023014069E-001	-9,812067967989303E-005
3,507048487663269E-001	-5,101134102127005E-003
3,387133479118347E-001	-6,921675487622743E-003
3,267155289649963E-001	-8,177220121069695E-003
3,146680295467377E-001	-9,084020631235014E-003
3,026777803897858E-001	-9,877495412850573E-003
2,906723320484161E-001	-1,005342665909362E-002
2,786814272403717E-001	-1,091619153582241E-002
2,666956782341003E-001	-1,074764528129890E-002
2,547149956226349E-001	-1,156718078358002E-002
2,426745295524597E-001	-1,158449801926810E-002
2,307326644659042E-001	-1,247037377058094E-002
2,186991572380066E-001	-1,205790090898518E-002
2,067051678895950E-001	-1,280432538781798E-002
1,947162002325058E-001	-1,273607487116049E-002
1,827240735292435E-001	-1,351547916237905E-002
1,707064807415009E-001	-1,347891303121279E-002
1,586659848690033E-001	-1,414363309377223E-002
1,467343270778656E-001	-1,424520238506377E-002
1,347517520189285E-001	-1,454099662344860E-002
1,226717829704285E-001	-1,461985860041748E-002
1,107464879751205E-001	-1,539839184661104E-002
9,872508049011230E-002	-1,528860952469890E-002
8,673740923404694E-002	-1,620557673231812E-002
7,467336207628250E-002	-1,609876557777169E-002
6,309369951486588E-002	-1,626565493643284E-002
7,282371819019318E-002	4,674822559324360E-003
8,483304083347321E-002	5,985438354400687E-003
9,683088958263397E-002	7,266534167805122E-003
1,088351011276245E-001	7,759906303181206E-003
1,208635121583939E-001	9,077248984370574E-003
1,328308135271072E-001	9,236096218228337E-003
1,448674947023392E-001	1,023510746914933E-002
1,568328887224197E-001	1,013576618728013E-002
1,688473075628281E-001	1,124655517802847E-002
1,808279603719711E-001	1,105714746311906E-002
1,928684562444687E-001	1,203618804356665E-002
2,048141062259674E-001	1,198695286038859E-002
2,168520838022232E-001	1,304513171186655E-002
2,288149297237396E-001	1,301170632650617E-002
2,408267855644226E-001	1,383484957162484E-002
2,528392970561981E-001	1,384459120575543E-002
2,648390233516693E-001	1,493152522064825E-002
2,768044471740723E-001	1,515754089681043E-002
2,888233065605164E-001	1,591799357520357E-002
3,008612394332886E-001	1,624996992492622E-002
3,128291964530945E-001	1,770063099162750E-002
3,248404264450073E-001	1,781279068612401E-002
3,368274271488190E-001	1,916880008005442E-002
3,488635122776031E-001	1,960005570460152E-002
3,608320653438568E-001	2,093327258553471E-002
3,556949496269226E-001	-3,760170769479987E-003
3,436792492866516E-001	-6,429130863822713E-003
3,316501975059509E-001	-7,821239240183769E-003
3,196479380130768E-001	-8,905266201994236E-003
3,077028691768646E-001	-9,438281641390212E-003
2,957158684730530E-001	-1,010391423478726E-002
2,837071716785431E-001	-1,066042224823224E-002
2,717437148094177E-001	-1,110135503113266E-002
2,597337663173676E-001	-1,134517612299531E-002
2,477702647447586E-001	-1,157405667969821E-002
2,357603162527084E-001	-1,208453427486045E-002
2,237592935562134E-001	-1,230950965727970E-002
2,117130458354950E-001	-1,237703858799549E-002
1,997304707765579E-001	-1,293246517428390E-002
1,877421587705612E-001	-1,332439446972183E-002
1,757111996412277E-001	-1,367470816270118E-002
1,637381613254547E-001	-1,399624541894202E-002
1,517696082592011E-001	-1,412205014227459E-002
1,397284716367722E-001	-1,450196936469480E-002
1,277248859405518E-001	-1,492532913883526E-002
1,157518401741982E-001	-1,514432105395828E-002
1,038157269358635E-001	-1,547668007854852E-002
9,175232052803040E-002	-1,593100513042983E-002
7,977356016635895E-002	-1,631370230267445E-002
6,779098510742188E-002	-1,664232649636685E-002
6,789410114288330E-002	3,421655510040492E-003
7,990276813507080E-002	5,547583402706835E-003
9,190635383129120E-002	7,005735472618346E-003
1,038711071014404E-001	7,658953166234522E-003
1,158390566706657E-001	8,534598833527224E-003
1,279094666242599E-001	9,002844009167663E-003
1,398678570985794E-001	9,835622169763802E-003
1,518205255270004E-001	1,001301754137482E-002
1,638629287481308E-001	1,071568292876084E-002
1,758226007223129E-001	1,111054227634062E-002
1,878859996795654E-001	1,164665592878011E-002
1,997954100370407E-001	1,183981947579016E-002
2,118543535470963E-001	1,231449527088746E-002
2,238706648349762E-001	1,278263491888842E-002
2,358755469322205E-001	1,360125827292602E-002
2,478810101747513E-001	1,391407193380775E-002
2,598858773708344E-001	1,454878402510081E-002
2,718570232391357E-001	1,490576129193263E-002
2,838637530803680E-001	1,563465610682521E-002
2,958437800407410E-001	1,618458562285627E-002
3,078206479549408E-001	1,683967158326902E-002
3,198815286159515E-001	1,769706631615314E-002
3,318055570125580E-001	1,866086886317736E-002
3,438352048397064E-001	1,926883999985868E-002
3,558559715747833E-001	2,042644357885970E-002
3,607060313224792E-001	-3,420807564680217E-003
3,487075269222260E-001	-5,712289473619125E-003
3,367078006267548E-001	-7,377823899211461E-003
3,247220218181610E-001	-8,708282098511211E-003
3,127413690090179E-001	-9,305494913678505E-003
3,007511496543884E-001	-1,003630015378197E-002
2,887437343597412E-001	-1,030380541693983E-002
2,766930460929871E-001	-1,116466037286348E-002
2,647168338298798E-001	-1,107482754572026E-002
2,527132332324982E-001	-1,182464751060858E-002
2,407370507717133E-001	-1,168982338288821E-002
2,287073433399200E-001	-1,255014766029486E-002
2,166986763477325E-001	-1,240278132002761E-002
2,046944797039032E-001	-1,310483073430077E-002
1,927316337823868E-001	-1,287945109858510E-002
1,806745529174805E-001	-1,379266126702225E-002
1,687378138303757E-001	-1,358684937052507E-002
1,566979438066483E-001	-1,431527778271025E-002
1,447586566209793E-001	-1,436319754126689E-002
1,327378898859024E-001	-1,485850065667665E-002
1,207311227917671E-001	-1,502021363218470E-002
1,087396219372749E-001	-1,556810492220384E-002
9,672331809997559E-002	-1,535997971914188E-002
8,469809591770172E-002	-1,646762773137506E-002
7,269641757011414E-002	-1,619810583518599E-002
6,307460367679596E-002	-1,533421501517296E-002
7,490058988332748E-002	4,837744981159624E-003
8,684434741735458E-002	6,185626895118423E-003
9,887720644474030E-002	7,398536125644256E-003
1,108699664473534E-001	8,110856721395991E-003
1,228958293795586E-001	8,737631362237180E-003
1,348421275615692E-001	9,117189515382040E-003
1,468832641839981E-001	1,004584883800517E-002
1,588238328695297E-001	1,040766428814094E-002
1,709228903055191E-001	1,099021256098543E-002
1,828602701425552E-001	1,116491293299379E-002
1,948906034231186E-001	1,197460153064939E-002
2,068763673305511E-001	1,221428483768253E-002
2,188793122768402E-001	1,278868359052771E-002
2,308956086635590E-001	1,318784999372539E-002
2,429246604442596E-001	1,363357925317055E-002
2,548696994781494E-001	1,408777505566830E-002
2,668980956077576E-001	1,485758799802472E-002
2,788399457931519E-001	1,513209593322246E-002
2,908950746059418E-001	1,617335937832357E-002
3,028388321399689E-001	1,648260780663507E-002
3,148137927055359E-001	1,740878409909788E-002
3,268027305603027E-001	1,791333990707555E-002
3,388375043869019E-001	1,938700481393120E-002
3,508156239986420E-001	1,960105213026203E-002
3,627457320690155E-001	2,116454585787628E-002
3,537167310714722E-001	-4,553900040233809E-003
3,416883051395416E-001	-6,643495569005599E-003
3,296752274036407E-001	-8,454889715054981E-003
3,176958262920380E-001	-8,821991134815660E-003
3,056641817092896E-001	-1,002407617973702E-002
2,936899065971375E-001	-9,962511898023274E-003
2,816869318485260E-001	-1,130408994104073E-002
2,696948349475861E-001	-1,088679959248111E-002
2,577478885650635E-001	-1,174487392684875E-002
2,457112073898315E-001	-1,158806363891929E-002
2,336936444044113E-001	-1,239959809051166E-002
2,216753959655762E-001	-1,221002120910270E-002
2,096985727548599E-001	-1,300960657839215E-002
1,977535486221313E-001	-1,287493060481210E-002
1,856933087110519E-001	-1,338615091881360E-002
1,737329810857773E-001	-1,334370700642465E-002
1,616689562797546E-001	-1,434337588240545E-002
1,497315764427185E-001	-1,389465474191334E-002
1,377056986093521E-001	-1,489918348646213E-002
1,256339997053146E-001	-1,439273893811328E-002
1,136603429913521E-001	-1,559637355821902E-002
1,017484143376350E-001	-1,527630089343196E-002
8,968435227870941E-002	-1,634937702838214E-002
7,774887979030609E-002	-1,598232004362216E-002
6,571093201637268E-002	-1,697672497308905E-002
6,983921676874161E-002	3,655014408529202E-003
8,185233920812607E-002	5,381859647665493E-003
9,383174031972885E-002	7,224217336200434E-003
1,058677732944489E-001	7,638940499540101E-003
1,178115457296371E-001	8,750597835872509E-003
1,298418492078781E-001	8,682984562013496E-003
1,418492645025253E-001	9,967007949611223E-003
1,538292765617371E-001	9,915204894059573E-003
1,658666133880615E-001	1,097410458472346E-002
1,705970466136932E-001	1,163806114345789E-002