File: fig_si_ecsa/ZrO2/50.txt
C:\EC-lab data\Neethu\2024_10_01_Ni90Fe10_ZrO2\CV_ECSA\CV_ECSA_03_CV_C01.mpr
Ewe/V	<I>/mA
6,530869007110596E-002	-3,321301937103271E-002
7,921282202005386E-002	-4,955814361740848E-004
9,271065890789032E-002	6,420114894657089E-004
1,046565398573875E-001	1,236107873612330E-003
1,166809201240540E-001	1,592792409812523E-003
1,287031620740891E-001	1,986176072528503E-003
1,406978368759155E-001	2,199439804017965E-003
1,527009904384613E-001	2,476266493330409E-003
1,646903455257416E-001	2,656941128306146E-003
1,766563951969147E-001	2,905137106709942E-003
1,886775940656662E-001	3,066517256229417E-003
2,006659060716629E-001	3,288539601271633E-003
2,126722633838654E-001	3,450723590706029E-003
2,246616184711456E-001	3,621109692378208E-003
2,367347776889801E-001	3,819531955539593E-003
2,486753165721893E-001	4,032973286990066E-003
2,607029080390930E-001	4,198036129512037E-003
2,726615071296692E-001	4,442940196087083E-003
2,847049832344055E-001	4,620037934121982E-003
2,967123687267303E-001	4,881387512998325E-003
3,086763024330139E-001	5,083812006180077E-003
3,206751942634583E-001	5,349462933534395E-003
3,326624631881714E-001	5,586552747748427E-003
3,446688055992126E-001	5,868676048622665E-003
3,566560149192810E-001	6,093555506393199E-003
3,596761822700500E-001	1,505532380178917E-003
3,477101325988770E-001	2,418401449833464E-004
3,356857597827911E-001	-3,347037984945511E-004
3,236985206604004E-001	-8,248807927076179E-004
3,116752207279205E-001	-1,134932535327000E-003
2,996900677680969E-001	-1,470808745580140E-003
2,877166271209717E-001	-1,681415200740343E-003
2,756912112236023E-001	-1,880430970534988E-003
2,636784911155701E-001	-2,102824724918018E-003
2,516838014125824E-001	-2,336233697254407E-003
2,397199273109436E-001	-2,464794623746353E-003
2,276859879493713E-001	-2,661846402285530E-003
2,157136201858521E-001	-2,783375559374683E-003
2,036796957254410E-001	-2,985165295993082E-003
1,917348504066467E-001	-3,103818814351039E-003
1,796935200691223E-001	-3,312638406391150E-003
1,676967144012451E-001	-3,391653583296125E-003
1,556723564863205E-001	-3,562093810817006E-003
1,437042057514191E-001	-3,657641855574580E-003
1,316925585269928E-001	-3,849714605571042E-003
1,197010651230812E-001	-3,940114616044502E-003
1,076989695429802E-001	-4,120800096845609E-003
9,571596235036850E-002	-4,207474836827402E-003
8,371385931968689E-002	-4,319020829926634E-003
7,171282917261124E-002	-4,479307725382041E-003
6,388928741216660E-002	-1,187415643395678E-003
7,587335258722305E-002	2,094765789371813E-006
8,787544816732407E-002	5,310516136837074E-004
9,990937262773514E-002	9,950917508629452E-004
1,119029894471169E-001	1,309597423035790E-003
1,238976567983627E-001	1,646448170605355E-003
1,358806788921356E-001	1,871798635369896E-003
1,478933691978455E-001	2,102217671361165E-003
1,599082052707672E-001	2,343661012976860E-003
1,718614995479584E-001	2,589994068734492E-003
1,839325428009033E-001	2,753328461444146E-003
1,959007084369659E-001	2,982147821361060E-003
2,079314291477203E-001	3,142088324239012E-003
2,199282348155975E-001	3,373818053660216E-003
2,319154590368271E-001	3,519045600923063E-003
2,438963800668716E-001	3,749332779989359E-003
2,559345364570618E-001	3,921198148923902E-003
2,679016292095184E-001	4,147843325578535E-003
2,798464000225067E-001	4,330468431564663E-003
2,919164299964905E-001	4,602987959919563E-003
3,038749992847443E-001	4,790771840715857E-003
3,158792257308960E-001	5,084663672379173E-003
3,278664648532867E-001	5,312581383299819E-003
3,398972153663635E-001	5,540981031420755E-003
3,518918752670288E-001	5,832787740574649E-003
3,633774816989899E-001	6,134237894522276E-003
3,516702055931091E-001	4,165176241410036E-004
3,396935760974884E-001	-2,780805394245866E-004
3,276532888412476E-001	-7,764138826031617E-004
3,156702816486359E-001	-1,197844596188380E-003
3,036904633045197E-001	-1,455180480863617E-003
2,917053103446960E-001	-1,753346694183869E-003
2,796787917613983E-001	-1,943085782740024E-003
2,676979303359985E-001	-2,186659299291526E-003
2,556756734848022E-001	-2,334773789496262E-003
2,436831593513489E-001	-2,536943418413602E-003
2,317107468843460E-001	-2,675849404113237E-003
2,197097092866898E-001	-2,872326392510624E-003
2,077574729919434E-001	-2,981944025224136E-003
1,957044452428818E-001	-3,176083640331243E-003
1,837331205606461E-001	-3,268904707713068E-003
1,716875284910202E-001	-3,457280233002777E-003
1,596758812665939E-001	-3,563864798100742E-003
1,477045416831970E-001	-3,680301745690590E-003
1,357204616069794E-001	-3,828548108382769E-003
1,236547231674194E-001	-4,003947216713433E-003
1,116791591048241E-001	-4,091212062727784E-003
9,971630573272705E-002	-4,276314896641334E-003
8,768238127231598E-002	-4,371755920955261E-003
7,568771392107010E-002	-4,541644480114987E-003
6,373931467533112E-002	-4,624744813099810E-003
7,187194377183914E-002	-3,505549629557610E-004
8,391966670751572E-002	2,863031388010820E-004
9,593237191438675E-002	7,724550132479665E-004
1,078952103853226E-001	1,172276132314846E-003
1,198697239160538E-001	1,454979600970952E-003
1,318951696157455E-001	1,769407424035310E-003
1,439142376184464E-001	1,980573487445431E-003
1,558686047792435E-001	2,253057585726817E-003
1,678961515426636E-001	2,437074567650493E-003
1,798982471227646E-001	2,698004990937395E-003
1,919194459915161E-001	2,833902617971451E-003
2,038918435573578E-001	3,070405491800762E-003
2,158483266830444E-001	3,227492419480581E-003
2,279363572597504E-001	3,442944697477903E-003
2,398620843887329E-001	3,604950838659238E-003
2,519002258777618E-001	3,850433121947924E-003
2,638492584228516E-001	4,021426809130285E-003
2,758927643299103E-001	4,224206804792636E-003
2,878948748111725E-001	4,447849938312898E-003
2,999245524406433E-001	4,721751133022034E-003
3,118502795696259E-001	4,922400261016785E-003
3,238470554351807E-001	5,218795310308166E-003
3,358629643917084E-001	5,437541489502304E-003
3,479042947292328E-001	5,743828205191280E-003
3,598512411117554E-001	5,974250946666072E-003
3,556906878948212E-001	7,175047687976821E-004
3,436546325683594E-001	-1,279039761862399E-004
3,316578567028046E-001	-7,124663767273075E-004
3,196313679218292E-001	-1,067686615493179E-003
3,076780438423157E-001	-1,389285762242147E-003
2,956844270229340E-001	-1,665776313732041E-003
2,837364673614502E-001	-1,940314526008373E-003
2,717173993587494E-001	-2,096613800353621E-003
2,597036063671112E-001	-2,333671119736713E-003
2,476855814456940E-001	-2,477079594933047E-003
2,357461005449295E-001	-2,683222343774914E-003
2,237217128276825E-001	-2,800362093290043E-003
2,117280960083008E-001	-2,948876197883175E-003
1,997196525335312E-001	-3,104545809037504E-003
1,876899749040604E-001	-3,294920616099262E-003
1,756921112537384E-001	-3,393132109421368E-003
1,636560559272766E-001	-3,574513095170720E-003
1,517250239849091E-001	-3,675420743295214E-003
1,397324949502945E-001	-3,849099999570171E-003
1,276869028806686E-001	-3,943814554077121E-003
1,157166212797165E-001	-4,105996842554298E-003
1,036837697029114E-001	-4,205314595310483E-003
9,174956381320953E-002	-4,373469781664086E-003
7,974003255367279E-002	-4,470649501147089E-003
6,773582100868225E-002	-4,642362588330978E-003
6,790448725223541E-002	-7,090682095167722E-004
7,990340888500214E-002	1,049681063736644E-004
9,190550446510315E-002	6,415507893204157E-004
1,039330735802650E-001	1,007998318123603E-003
1,158895418047905E-001	1,366385165359444E-003
1,278969347476959E-001	1,620448427274825E-003
1,399096399545670E-001	1,925092751359145E-003
1,519064307212830E-001	2,121175239153686E-003
1,638353317975998E-001	2,379138188795586E-003
1,758979111909866E-001	2,555142912266717E-003
1,878798604011536E-001	2,795826574381682E-003
1,998766660690308E-001	2,955163963431720E-003
2,118861824274063E-001	3,134751733240505E-003
2,238617539405823E-001	3,330431239090936E-003
2,359136790037155E-001	3,558946582011738E-003
2,478415518999100E-001	3,719236293060636E-003
2,598892450332642E-001	3,950882327545632E-003
2,718839049339294E-001	4,135209002318646E-003
2,838998138904572E-001	4,390857800899539E-003
2,959029674530029E-001	4,590903451672724E-003
3,078806698322296E-001	4,820074125746046E-003
3,198742568492889E-001	5,071522857178948E-003
3,318625688552856E-001	5,374849762221090E-003
3,439007699489594E-001	5,585904571893896E-003
3,558731377124786E-001	5,893685678731539E-003
3,596719503402710E-001	1,303603019853956E-003
3,476719260215759E-001	3,907519652557372E-005
3,356942236423492E-001	-5,189631247806883E-004
3,237228989601135E-001	-1,008403598765048E-003
3,116773068904877E-001	-1,300237710994323E-003
2,996826767921448E-001	-1,636824905896588E-003
2,877060174942017E-001	-1,834996182878967E-003
2,756657600402832E-001	-2,041624638473474E-003
2,636753022670746E-001	-2,240561690794288E-003
2,517336606979370E-001	-2,479473148317389E-003
2,396987080574036E-001	-2,598804104006071E-003
2,276605367660522E-001	-2,798243564029690E-003
2,156722545623779E-001	-2,927276583351249E-003
2,036860585212708E-001	-3,110527823486732E-003
1,916839480400085E-001	-3,227189271961438E-003
1,796956360340118E-001	-3,425988267635044E-003
1,676776111125946E-001	-3,500686552393342E-003
1,556521952152252E-001	-3,675341213036323E-003
1,437116265296936E-001	-3,771566619333380E-003
1,317232996225357E-001	-3,945707717826319E-003
1,196893975138664E-001	-4,045698402478579E-003
1,077339723706245E-001	-4,213883005933075E-003
9,574779123067856E-002	-4,307366379685422E-003
8,371491730213165E-002	-4,426323261415940E-003
7,167886942625046E-002	-4,569339964089300E-003
6,386170536279678E-002	-1,284922385985331E-003
7,589986920356750E-002	-9,530414659852937E-005
8,792424201965332E-002	4,361233292608357E-004
9,985315799713135E-002	9,100397752364285E-004
1,118552535772324E-001	1,215184621388397E-003
1,238923445343971E-001	1,559247299054631E-003
1,359241455793381E-001	1,801795852871792E-003
1,478976011276245E-001	2,017327615451203E-003
1,598848700523376E-001	2,258134103006662E-003
1,705970466136932E-001	2,545492490753531E-003