File: fig_5_ni90fe10_ceo2_tio2_zro2/Activity_1/TiO2_Activity_1.mpt
EC-Lab ASCII FILE
Nb header lines : 61

Linear Sweep Voltammetry

Run on channel : 1 (SN 10336)
User :
CE vs. WE compliance from -10 V to 10 V
Electrode connection : standard
Potential control : Ewe
Ewe ctrl range : min = -2,50 V, max = 2,50 V
Safety Limits :
	Do not start on E overload
Acquisition started on : 10/07/2024 14:36:26.929
Technique started on : 10/07/2024 14:36:26.929
Loaded Setting File :  C:\EC-lab data\Neethu\2024_10_01_Ni90Fe10_TiO2\Activity_1.mps
Saved on :
	File : Activity_1_C01.mpr
	Directory : C:\EC-lab data\Neethu\2024_10_07_Ni90Fe10_TiO2\
	Host : 10.54.33.65
Device : VMP3 (SN 0498)
Address : USB
EC-Lab for windows v11.52 (software)
Internet server v11.52 (firmware)
Command interpretor v11.50 (firmware)
Electrode material :
Initial state :
Electrolyte :
Comments :
Electrode surface area : 0,001 cm²
Characteristic mass : 0,001 g
Volume (V) : 0,001 cm³
Thickness (t) : 0,000 cm
Diameter (d) : 0,000 cm
Cell constant (k=t/A) : 0,000 cm-1
Cycle Definition : Charge/Discharge alternance
tR (h:m:s)          0:00:5,0000
dER/dt (mV/h)       0,0
dER (mV)            0
dtR (s)             0,0000
dE/dt               5,000
dE/dt unit          mV/s
Ei (V)              0,064
vs.                 Ref
EL (V)              0,900
vs.                 Ref
record              <I>
dI                  0,000
unit dI             µA
tI (s)              0,0000
step percent        50
N                   10
E range min (V)     -2,500
E range max (V)     2,500
I Range             Auto
I Range min         Unset
I Range max         Unset
I Range init        Unset
Bandwidth           5

mode	ox/red	error	control changes	time/s	control/V	Ewe/V	<I>/mA	(Q-Qo)/C	I Range	P/W
3	1	0	1	10/07/2024 14:36:26.9290	0,0000000E+000	4,8964316E-001	0,000000000000000E+000	0,0000000E+000	14	0,0000000E+000
2	0	0	1	10/07/2024 14:36:33.7788	7,3129132E-002	7,2316021E-002	-1,598509538996875E-001	-5,2960316E-004	12	-1,1559785E-005
2	0	0	0	10/07/2024 14:36:35.9786	8,4128276E-002	8,3370805E-002	-1,062006650158877E-001	-8,1061333E-004	12	-8,8540346E-006
2	0	0	1	10/07/2024 14:36:38.1784	9,5127411E-002	9,4372556E-002	-8,299584770015528E-002	-1,0157556E-003	12	-7,8325302E-006
2	0	0	0	10/07/2024 14:36:40.3782	1,0612654E-001	1,0538385E-001	-6,862732749844126E-002	-1,1809502E-003	12	-7,2322118E-006
2	0	0	1	10/07/2024 14:36:42.5780	1,1712568E-001	1,1634528E-001	-5,844155669871218E-002	-1,3196890E-003	12	-6,7993992E-006
2	0	0	0	10/07/2024 14:36:44.7778	1,2812482E-001	1,2735446E-001	-5,070243847224853E-002	-1,4388997E-003	12	-6,4571814E-006
2	0	0	1	10/07/2024 14:36:46.9977	1,3922372E-001	1,3845351E-001	-4,463488833504514E-002	-1,5438377E-003	13	-6,1798569E-006
2	0	0	1	10/07/2024 14:36:49.1976	1,5022309E-001	1,4947994E-001	-3,943841200973408E-002	-1,6356782E-003	13	-5,8952514E-006
2	0	0	0	10/07/2024 14:36:51.3974	1,6122222E-001	1,6045730E-001	-3,499573826063387E-002	-1,7169473E-003	13	-5,6153217E-006
2	0	0	1	10/07/2024 14:36:53.5972	1,7222136E-001	1,7144844E-001	-3,118217749364863E-002	-1,7891964E-003	13	-5,3461358E-006
2	0	0	0	10/07/2024 14:36:55.7970	1,8322051E-001	1,8244912E-001	-2,783018752088873E-002	-1,8536232E-003	13	-5,0775930E-006
2	0	0	1	10/07/2024 14:36:57.9968	1,9421962E-001	1,9345298E-001	-2,482809809241415E-002	-1,9110566E-003	13	-4,8030697E-006
2	0	0	0	10/07/2024 14:37:00.1966	2,0521878E-001	2,0442396E-001	-2,218409738587335E-002	-1,9622690E-003	13	-4,5349611E-006
2	0	0	1	10/07/2024 14:37:02.3965	2,1621780E-001	2,1542244E-001	-1,975277646864852E-002	-2,0079222E-003	13	-4,2551910E-006
2	0	0	1	10/07/2024 14:37:04.5964	2,2721703E-001	2,2646987E-001	-1,761187638312917E-002	-2,0485835E-003	13	-3,9885595E-006
2	0	0	0	10/07/2024 14:37:06.7962	2,3821618E-001	2,3745786E-001	-1,562925208929625E-002	-2,0847074E-003	13	-3,7112886E-006
2	0	0	1	10/07/2024 14:37:08.9960	2,4921532E-001	2,4848187E-001	-1,384388664188266E-002	-2,1167102E-003	13	-3,4399548E-006
2	0	0	0	10/07/2024 14:37:11.1958	2,6021445E-001	2,5945815E-001	-1,223676745752620E-002	-2,1449765E-003	13	-3,1749291E-006
2	0	0	1	10/07/2024 14:37:13.3956	2,7121356E-001	2,7046409E-001	-1,077431531631187E-002	-2,1698284E-003	13	-2,9140654E-006
2	0	0	0	10/07/2024 14:37:15.5954	2,8221270E-001	2,8145528E-001	-9,453693422150440E-003	-2,1916197E-003	13	-2,6607920E-006
2	0	0	1	10/07/2024 14:37:17.7953	2,9321218E-001	2,9245946E-001	-8,229969729158515E-003	-2,2105970E-003	13	-2,4069325E-006
2	0	0	1	10/07/2024 14:37:19.9952	3,0421102E-001	3,0342275E-001	-7,126810639207559E-003	-2,2270042E-003	13	-2,1624364E-006
2	0	0	0	10/07/2024 14:37:22.1950	3,1521013E-001	3,1445417E-001	-6,113005916668815E-003	-2,2410930E-003	13	-1,9222603E-006
2	0	0	1	10/07/2024 14:37:24.3948	3,2620925E-001	3,2545379E-001	-5,220212071369522E-003	-2,2530640E-003	13	-1,6989378E-006
2	0	0	0	10/07/2024 14:37:26.6146	3,3730841E-001	3,3647037E-001	-5,358859968528487E-003	-2,2631944E-003	14	-1,8030976E-006
2	0	0	1	10/07/2024 14:37:28.8144	3,4830752E-001	3,4742969E-001	-4,597645204073676E-003	-2,2715032E-003	14	-1,5973585E-006
2	0	0	0	10/07/2024 14:37:31.0142	3,5930666E-001	3,5842401E-001	-3,880276502411809E-003	-2,2782143E-003	14	-1,3907843E-006
2	0	0	1	10/07/2024 14:37:33.2140	3,7030578E-001	3,6942682E-001	-3,260087451523770E-003	-2,2834884E-003	14	-1,2043637E-006
2	0	0	1	10/07/2024 14:37:35.4140	3,8130495E-001	3,8036919E-001	-2,704126141115253E-003	-2,2874563E-003	14	-1,0285663E-006
2	0	0	0	10/07/2024 14:37:37.6138	3,9230406E-001	3,9136985E-001	-2,181846422190530E-003	-2,2902510E-003	14	-8,5390889E-007
2	0	0	1	10/07/2024 14:37:39.8136	4,0330321E-001	4,0244898E-001	-1,673981265358684E-003	-2,2919646E-003	14	-6,7369206E-007
2	0	0	0	10/07/2024 14:37:42.0134	4,1430238E-001	4,1349107E-001	-1,180810978238292E-003	-2,2926705E-003	14	-4,8825478E-007
2	0	0	1	10/07/2024 14:37:44.2132	4,2530146E-001	4,2452574E-001	-7,250295967071198E-004	-2,2924407E-003	14	-3,0779373E-007
2	0	0	0	10/07/2024 14:37:46.4130	4,3630064E-001	4,3549454E-001	-2,640271884401457E-004	-2,2913273E-003	14	-1,1498240E-007
2	1	0	1	10/07/2024 14:37:48.6128	4,4729975E-001	4,4650799E-001	2,099550236880033E-004	-2,2893443E-003	14	9,3746593E-008
2	1	0	1	10/07/2024 14:37:50.8128	4,5829889E-001	4,5755005E-001	7,588777043771866E-004	-2,2864668E-003	14	3,4722453E-007
2	1	0	0	10/07/2024 14:37:53.0126	4,6929801E-001	4,6850300E-001	1,686329062240900E-003	-2,2823454E-003	14	7,9005019E-007
2	1	0	1	10/07/2024 14:37:55.2124	4,8029718E-001	4,7955248E-001	3,718317052923081E-003	-2,2753850E-003	14	1,7831281E-006
2	1	0	0	10/07/2024 14:37:57.4122	4,9129629E-001	4,9059135E-001	7,378360772436234E-003	-2,2628594E-003	14	3,6197600E-006
2	1	0	1	10/07/2024 14:37:59.6320	5,0239539E-001	5,0169390E-001	1,355466113532439E-002	-2,2393626E-003	13	6,8002910E-006
2	1	0	0	10/07/2024 14:38:01.8318	5,1339459E-001	5,1267231E-001	2,443365670255931E-002	-2,1978358E-003	13	1,2526459E-005
2	1	0	1	10/07/2024 14:38:04.0316	5,2439374E-001	5,2365178E-001	4,504386511844616E-002	-2,1219631E-003	13	2,3587299E-005
2	1	0	1	10/07/2024 14:38:06.2316	5,3539282E-001	5,3464395E-001	8,114599214144458E-002	-1,9871865E-003	13	4,3384214E-005
2	1	0	0	10/07/2024 14:38:08.4514	5,4649204E-001	5,4573905E-001	1,835064039082011E-001	-1,7016111E-003	12	1,0014661E-004
2	1	0	1	10/07/2024 14:38:10.6512	5,5749112E-001	5,5678427E-001	2,845427005101930E-001	-1,1763207E-003	12	1,5842890E-004
2	1	0	0	10/07/2024 14:38:12.8510	5,6849027E-001	5,6776059E-001	3,476747641542639E-001	-4,7223669E-004	12	1,9739603E-004
2	1	0	1	10/07/2024 14:38:15.0508	5,7948941E-001	5,7874113E-001	3,804525312483982E-001	3,3620175E-004	12	2,2018353E-004
2	1	0	0	10/07/2024 14:38:17.2506	5,9048849E-001	5,8977354E-001	3,996527700763099E-001	1,1966319E-003	12	2,3570463E-004
2	1	0	1	10/07/2024 14:38:19.4504	6,0148770E-001	6,0078597E-001	4,329940615487944E-001	2,1105702E-003	12	2,6013676E-004
2	1	0	1	10/07/2024 14:38:21.6504	6,1248690E-001	6,1174434E-001	4,979297187729950E-001	3,1310059E-003	12	3,0460570E-004
2	1	0	0	10/07/2024 14:38:23.8502	6,2348598E-001	6,2274170E-001	6,001325804115090E-001	4,3350169E-003	12	3,7372758E-004
2	1	0	1	10/07/2024 14:38:26.0500	6,3448507E-001	6,3376468E-001	7,430131807331968E-001	5,8081145E-003	12	4,7089552E-004
2	1	0	0	10/07/2024 14:38:28.2498	6,4548421E-001	6,4473563E-001	9,331427422983616E-001	7,6456275E-003	12	6,0163037E-004
2	1	0	1	10/07/2024 14:38:30.4696	6,5658337E-001	6,5584457E-001	1,187834053040563E+000	9,9902721E-003	11	7,7903451E-004
2	1	0	0	10/07/2024 14:38:32.6694	6,6758251E-001	6,6685796E-001	1,517879072137497E+000	1,2954886E-002	11	1,0122097E-003
2	1	0	1	10/07/2024 14:38:34.8692	6,7858160E-001	6,7785645E-001	1,949415725543929E+000	1,6753998E-002	11	1,3214240E-003
2	1	0	1	10/07/2024 14:38:37.0691	6,8958074E-001	6,8885291E-001	2,500278015133771E+000	2,1632176E-002	11	1,7223238E-003
2	1	0	0	10/07/2024 14:38:39.2690	7,0057994E-001	6,9989496E-001	3,183530908491861E+000	2,7868107E-002	11	2,2281373E-003
2	1	0	1	10/07/2024 14:38:41.4688	7,1157902E-001	7,1087563E-001	3,995724190119439E+000	3,5751164E-002	11	2,8404628E-003
2	1	0	0	10/07/2024 14:38:43.6686	7,2257817E-001	7,2184122E-001	4,927566547242421E+000	4,5555215E-002	11	3,5569207E-003
2	1	0	1	10/07/2024 14:38:45.8684	7,3357731E-001	7,3287588E-001	5,966337741671509E+000	5,7531573E-002	11	4,3725851E-003
2	1	0	0	10/07/2024 14:38:48.0682	7,4457645E-001	7,4388301E-001	7,106039543541122E+000	7,1911700E-002	11	5,2860621E-003
2	1	0	1	10/07/2024 14:38:50.2680	7,5557566E-001	7,5489002E-001	8,310259999128675E+000	8,8871248E-002	11	6,2733325E-003
2	1	0	1	10/07/2024 14:38:52.4679	7,6657504E-001	7,6586229E-001	9,572768156727253E+000	1,0854802E-001	11	7,3314221E-003
2	1	0	0	10/07/2024 14:38:54.6678	7,7757382E-001	7,7682561E-001	1,090105179932112E+001	1,3107035E-001	11	8,4682163E-003
2	1	0	1	10/07/2024 14:38:56.8876	7,8867304E-001	7,8794187E-001	1,227618570318296E+001	1,5683903E-001	10	9,6729212E-003
2	1	0	0	10/07/2024 14:38:59.0874	7,9967207E-001	7,9896581E-001	1,391695114166017E+001	1,8543208E-001	10	1,1119168E-002
2	1	0	1	10/07/2024 14:39:01.2872	8,1067121E-001	8,0995905E-001	1,538263929930935E+001	2,1764082E-001	10	1,2459308E-002
2	1	0	0	10/07/2024 14:39:03.4870	8,2167041E-001	8,2100546E-001	1,686530698494579E+001	2,5309896E-001	10	1,3846509E-002
2	1	0	1	10/07/2024 14:39:05.6868	8,3266956E-001	8,3197433E-001	1,835875073230721E+001	2,9186499E-001	10	1,5274010E-002
2	1	0	1	10/07/2024 14:39:07.8867	8,4366864E-001	8,4297287E-001	1,987319808934575E+001	3,3399633E-001	10	1,6752567E-002
2	1	0	0	10/07/2024 14:39:10.0866	8,5466778E-001	8,5399473E-001	2,145684062420909E+001	3,7956667E-001	10	1,8324029E-002
2	1	0	1	10/07/2024 14:39:12.2864	8,6566693E-001	8,6496896E-001	2,305246797129666E+001	4,2854369E-001	10	1,9939668E-002
2	1	0	0	10/07/2024 14:39:14.4862	8,7666613E-001	8,7600034E-001	2,465112364954422E+001	4,8102927E-001	10	2,1594392E-002
2	1	0	1	10/07/2024 14:39:16.6860	8,8766527E-001	8,8701177E-001	2,626969461511328E+001	5,3702968E-001	10	2,3301529E-002
2	1	0	0	10/07/2024 14:39:18.8858	8,9866430E-001	8,9798802E-001	2,787649280630262E+001	5,9662956E-001	10	2,5032757E-002
2	1	0	0	10/07/2024 14:39:19.1430	9,0001452E-001	8,9920610E-001	2,824172570970323E+001	6,0381746E-001	10	2,5395133E-002