File: fig_5_ni90fe10_ceo2_tio2_zro2/Activity_1/ZrO2_Activity_1.mpt
EC-Lab ASCII FILE
Nb header lines : 62

Linear Sweep Voltammetry

Run on channel : 1 (SN 10336)
User :
CE vs. WE compliance from -10 V to 10 V
Electrode connection : standard
Potential control : Ewe
Ewe ctrl range : min = -2,50 V, max = 2,50 V
Safety Limits :
	Do not start on E overload
Acquisition started on : 10/01/2024 18:57:04.938
Technique started on : 10/01/2024 18:57:04.938
Loaded Setting File :  C:\EC-lab data\Neethu\2024_10_01_Ni90Fe10_TiO2\Activity_1.mps
Saved on :
	File : Activity_1_C01.mpr
	Directory : C:\EC-lab data\Neethu\2024_10_01_Ni90Fe10_ZrO2\
	Host : 10.54.33.65
Device : VMP3 (SN 0498)
Address : USB
EC-Lab for windows v11.52 (software)
Internet server v11.52 (firmware)
Command interpretor v11.50 (firmware)
Electrode material :
Initial state :
Electrolyte :
Comments :
Electrode surface area : 0,001 cm²
Characteristic mass : 0,001 g
Volume (V) : 0,001 cm³
Thickness (t) : 0,000 cm
Diameter (d) : 0,000 cm
Cell constant (k=t/A) : 0,000 cm-1
Record Ece
Cycle Definition : Charge/Discharge alternance
tR (h:m:s)          0:00:5,0000
dER/dt (mV/h)       0,0
dER (mV)            0
dtR (s)             0,0000
dE/dt               5,000
dE/dt unit          mV/s
Ei (V)              0,064
vs.                 Ref
EL (V)              0,900
vs.                 Ref
record              <I>
dI                  0,000
unit dI             µA
tI (s)              0,0000
step percent        50
N                   10
E range min (V)     -2,500
E range max (V)     2,500
I Range             Auto
I Range min         Unset
I Range max         Unset
I Range init        Unset
Bandwidth           5

mode	ox/red	error	control changes	time/s	control/V	Ewe/V	<I>/mA	(Q-Qo)/C	I Range	<Ece>/V	P/W	Ewe-Ece/V
3	1	0	1	10/01/2024 18:57:04.9380	0,0000000E+000	3,0647519E-001	0,000000000000000E+000	0,0000000E+000	14	2,1413505E-002	0,0000000E+000	2,8506169E-001
2	0	0	1	10/01/2024 18:57:12.1877	7,5103976E-002	7,4326523E-002	-3,129670235393067E-003	-1,2115980E-005	14	2,2489414E-002	-2,3261751E-007	5,1837109E-002
2	0	0	1	10/01/2024 18:57:14.7875	8,8103592E-002	8,7352850E-002	-2,029528998663030E-003	-1,7669543E-005	14	2,2690985E-002	-1,7728514E-007	6,4661860E-002
2	0	0	0	10/01/2024 18:57:17.3872	1,0110209E-001	1,0035174E-001	-1,499319581065526E-003	-2,1344737E-005	14	2,2836514E-002	-1,5045933E-007	7,7515222E-002
2	0	0	1	10/01/2024 18:57:19.9870	1,1410104E-001	1,1333509E-001	-1,159733256717860E-003	-2,3961691E-005	14	2,2934049E-002	-1,3143847E-007	9,0401039E-002
2	1	0	0	10/01/2024 18:57:22.5868	1,2709999E-001	1,2632905E-001	-9,094539668813408E-004	-2,5841937E-005	14	2,3017276E-002	-1,1489045E-007	1,0331178E-001
2	1	0	1	10/01/2024 18:57:25.1866	1,4009894E-001	1,3932726E-001	-7,294012847933219E-004	-2,7153377E-005	14	2,3075268E-002	-1,0162548E-007	1,1625199E-001
2	1	0	0	10/01/2024 18:57:27.7864	1,5309790E-001	1,5235409E-001	-5,337022417311980E-004	-2,8006840E-005	14	2,3113279E-002	-8,1311718E-008	1,2924081E-001
2	1	0	1	10/01/2024 18:57:30.3862	1,6609685E-001	1,6535443E-001	-3,664015476906850E-004	-2,8472348E-005	14	2,3140833E-002	-6,0586117E-008	1,4221360E-001
2	1	0	0	10/01/2024 18:57:32.9860	1,7909579E-001	1,7835370E-001	-2,435982269223752E-004	-2,8599645E-005	14	2,3164451E-002	-4,3446644E-008	1,5518925E-001
2	1	0	1	10/01/2024 18:57:35.5858	1,9209474E-001	1,9135617E-001	-1,302641503924244E-004	-2,8425273E-005	14	2,3177892E-002	-2,4926848E-008	1,6817828E-001
2	1	0	0	10/01/2024 18:57:38.1856	2,0509368E-001	2,0431615E-001	-4,508209644102455E-005	-2,7977991E-005	14	2,3180813E-002	-9,2110009E-009	1,8113534E-001
2	1	0	1	10/01/2024 18:57:40.7854	2,1809265E-001	2,1735361E-001	5,104189196673001E-005	-2,7278958E-005	14	2,3179602E-002	1,1094140E-008	1,9417401E-001
2	1	0	0	10/01/2024 18:57:43.3852	2,3109160E-001	2,3035075E-001	1,226776366139986E-004	-2,6343403E-005	14	2,3170533E-002	2,8258885E-008	2,0718022E-001
2	1	0	1	10/01/2024 18:57:45.9850	2,4409054E-001	2,4340625E-001	2,114786135605485E-004	-2,5182504E-005	14	2,3157978E-002	5,1475215E-008	2,2024827E-001
2	1	0	0	10/01/2024 18:57:48.5848	2,5708950E-001	2,5638431E-001	2,872822727313139E-004	-2,3806719E-005	14	2,3137417E-002	7,3654668E-008	2,3324689E-001
2	1	0	1	10/01/2024 18:57:51.1846	2,7008846E-001	2,6933262E-001	3,691598110788542E-004	-2,2222153E-005	14	2,3112521E-002	9,9426778E-008	2,4622010E-001
2	1	0	0	10/01/2024 18:57:53.7844	2,8308737E-001	2,8235632E-001	4,229002716740413E-004	-2,0431618E-005	14	2,3071785E-002	1,1940857E-007	2,5928453E-001
2	1	0	1	10/01/2024 18:57:56.3842	2,9608637E-001	2,9534924E-001	4,681598302485072E-004	-1,8437104E-005	14	2,3039270E-002	1,3827065E-007	2,7230996E-001
2	1	0	0	10/01/2024 18:57:58.9840	3,0908528E-001	3,0832833E-001	5,188426478014698E-004	-1,6241856E-005	14	2,2986995E-002	1,5997389E-007	2,8534132E-001
2	1	0	1	10/01/2024 18:58:01.5838	3,2208422E-001	3,2128519E-001	5,563918920007925E-004	-1,3845869E-005	14	2,2931146E-002	1,7876047E-007	2,9835403E-001
2	1	0	0	10/01/2024 18:58:04.1836	3,3508319E-001	3,3432263E-001	5,880891157866316E-004	-1,1248141E-005	14	2,2875518E-002	1,9661150E-007	3,1144711E-001
2	1	0	1	10/01/2024 18:58:06.7834	3,4808210E-001	3,4731764E-001	6,013703000657187E-004	-8,4514822E-006	14	2,2812635E-002	2,0886651E-007	3,2450500E-001
2	1	0	1	10/01/2024 18:58:09.3831	3,6108077E-001	3,6029539E-001	5,958008141224175E-004	-5,4581205E-006	14	2,2737516E-002	2,1466428E-007	3,3755788E-001
2	1	0	1	10/01/2024 18:58:11.9829	3,7408036E-001	3,7327626E-001	5,999371025296107E-004	-2,2692918E-006	14	2,2661591E-002	2,2394228E-007	3,5061467E-001
2	1	0	1	10/01/2024 18:58:14.5826	3,8707897E-001	3,8624543E-001	6,353337105994878E-004	1,1162838E-006	14	2,2579204E-002	2,4539474E-007	3,6366624E-001
2	1	0	0	10/01/2024 18:58:17.1824	4,0007794E-001	3,9928076E-001	6,516474531633497E-004	4,7010899E-006	14	2,2492923E-002	2,6019029E-007	3,7678784E-001
2	1	0	1	10/01/2024 18:58:19.7822	4,1307688E-001	4,1235960E-001	6,846731521982534E-004	8,4973908E-006	14	2,2396339E-002	2,8233154E-007	3,8996327E-001
2	1	0	0	10/01/2024 18:58:22.3820	4,2607588E-001	4,2530689E-001	7,243514717550949E-004	1,2515012E-005	14	2,2288345E-002	3,0807166E-007	4,0301853E-001
2	1	0	1	10/01/2024 18:58:24.9818	4,3907481E-001	4,3830508E-001	7,835422895818140E-004	1,6776681E-005	14	2,2177367E-002	3,4343057E-007	4,1612771E-001
2	1	0	0	10/01/2024 18:58:27.5816	4,5207372E-001	4,5133933E-001	8,466097719634332E-004	2,1322619E-005	14	2,2056950E-002	3,8210828E-007	4,2928240E-001
2	1	0	1	10/01/2024 18:58:30.1814	4,6507266E-001	4,6429726E-001	1,086145030911917E-003	2,6295849E-005	14	2,1924475E-002	5,0429418E-007	4,4237280E-001
2	1	0	0	10/01/2024 18:58:32.7812	4,7807163E-001	4,7728908E-001	1,700760537948934E-003	3,2115364E-005	14	2,1756979E-002	8,1175443E-007	4,5553210E-001
2	1	0	1	10/01/2024 18:58:35.3810	4,9107060E-001	4,9036580E-001	3,380052561644954E-003	4,0149094E-005	14	2,1484476E-002	1,6574622E-006	4,6888134E-001
2	1	0	0	10/01/2024 18:58:37.9808	5,0406951E-001	5,0340110E-001	8,894221810597576E-003	5,5828772E-005	14	2,0832602E-002	4,4773610E-006	4,8256850E-001
2	1	0	1	10/01/2024 18:58:40.6006	5,1716852E-001	5,1646614E-001	2,494446927171565E-002	9,7878030E-005	13	1,8941337E-002	1,2882973E-005	4,9752480E-001
2	1	0	0	10/01/2024 18:58:43.2004	5,3016740E-001	5,2947176E-001	5,098597910952074E-002	1,9850093E-004	13	1,4371306E-002	2,6995636E-005	5,1510048E-001
2	1	0	1	10/01/2024 18:58:45.8002	5,4316640E-001	5,4248697E-001	5,061059293829218E-002	3,3892351E-004	13	8,5780276E-003	2,7455588E-005	5,3390896E-001
2	1	0	0	10/01/2024 18:58:48.4000	5,5616534E-001	5,5550003E-001	5,683696608253414E-002	4,7704543E-004	13	3,3362934E-003	3,1572938E-005	5,5216372E-001
2	1	0	1	10/01/2024 18:58:50.9998	5,6916428E-001	5,6849819E-001	7,224801733779374E-002	6,4696354E-004	13	-3,1687310E-003	4,1072868E-005	5,7166690E-001
2	1	0	0	10/01/2024 18:58:53.5996	5,8216321E-001	5,8147103E-001	9,018528344882604E-002	8,6038728E-004	13	-1,1228446E-002	5,2440129E-005	5,9269947E-001
2	1	0	1	10/01/2024 18:58:56.2194	5,9526217E-001	5,9459960E-001	1,123101380505855E-001	1,1271479E-003	12	-2,0980630E-002	6,6779561E-005	6,1558026E-001
2	1	0	0	10/01/2024 18:58:58.8192	6,0826111E-001	6,0758626E-001	1,416229149273890E-001	1,4573848E-003	12	-3,2430068E-002	8,6048138E-005	6,4001632E-001
2	1	0	1	10/01/2024 18:59:01.4190	6,2126011E-001	6,2055051E-001	1,858346158915248E-001	1,8814693E-003	12	-4,5886569E-002	1,1531977E-004	6,6643709E-001
2	1	0	0	10/01/2024 18:59:04.0188	6,3425899E-001	6,3354975E-001	2,557729756831280E-001	2,4511279E-003	12	-6,1303433E-002	1,6204490E-004	6,9485319E-001
2	1	0	1	10/01/2024 18:59:06.6185	6,4725798E-001	6,4657336E-001	3,690941519267437E-001	3,2544357E-003	12	-7,8227349E-002	2,3864645E-004	7,2480071E-001
2	1	0	1	10/01/2024 18:59:09.2182	6,6025680E-001	6,5954411E-001	5,522262436669774E-001	4,4367150E-003	12	-9,6812077E-002	3,6421756E-004	7,5635618E-001
2	1	0	0	10/01/2024 18:59:11.8180	6,7325586E-001	6,7255288E-001	8,411992786287459E-001	6,2250649E-003	12	-1,1865314E-001	5,6575099E-004	7,9120600E-001
2	1	0	1	10/01/2024 18:59:14.4378	6,8635482E-001	6,8566144E-001	1,279553453549916E+000	8,9736748E-003	11	-1,4546011E-001	8,7734044E-004	8,3112156E-001
2	1	0	0	10/01/2024 18:59:17.0376	6,9935381E-001	6,9866067E-001	1,877220976379731E+000	1,3049716E-002	11	-1,8095227E-001	1,3115405E-003	8,7961292E-001
2	1	0	1	10/01/2024 18:59:19.6374	7,1235275E-001	7,1164608E-001	2,630396857823925E+000	1,8887211E-002	11	-2,3105295E-001	1,8719116E-003	9,4269902E-001
2	1	0	0	10/01/2024 18:59:22.2372	7,2535169E-001	7,2462529E-001	3,518155437275389E+000	2,6864463E-002	11	-3,1168881E-001	2,5493444E-003	1,0363141E+000
2	1	0	1	10/01/2024 18:59:24.8370	7,3835063E-001	7,3763406E-001	4,515577712499628E+000	3,7299175E-002	11	-4,4613335E-001	3,3308440E-003	1,1837674E+000
2	1	0	0	10/01/2024 18:59:27.4368	7,5134957E-001	7,5065875E-001	5,602653698619775E+000	5,0452024E-002	11	-6,2917328E-001	4,2056809E-003	1,3798320E+000
2	1	0	1	10/01/2024 18:59:30.0366	7,6434851E-001	7,6367193E-001	6,757537122283665E+000	6,6519432E-002	11	-7,9245168E-001	5,1605413E-003	1,5561236E+000
2	1	0	0	10/01/2024 18:59:32.6364	7,7734751E-001	7,7662975E-001	7,968343380222009E+000	8,5666120E-002	11	-9,5250744E-001	6,1884527E-003	1,7291372E+000
2	1	0	1	10/01/2024 18:59:35.2362	7,9034644E-001	7,8964168E-001	9,217413933031107E+000	1,0802171E-001	11	-1,1313738E+000	7,2784540E-003	1,9210155E+000
2	1	0	0	10/01/2024 18:59:37.8360	8,0334526E-001	8,0265898E-001	1,048672370028062E+001	1,3364494E-001	11	-1,3049533E+000	8,4172627E-003	2,1076124E+000
2	1	0	1	10/01/2024 18:59:40.4758	8,1654429E-001	8,1585878E-001	1,184907958506193E+001	1,6314094E-001	10	-1,4463322E+000	9,6671758E-003	2,2621911E+000
2	1	0	0	10/01/2024 18:59:43.0756	8,2954329E-001	8,2889199E-001	1,323971026433031E+001	1,9579859E-001	10	-1,4828620E+000	1,0974290E-002	2,3117540E+000
2	1	0	1	10/01/2024 18:59:45.6754	8,4254223E-001	8,4188384E-001	1,466919280463608E+001	2,3197624E-001	10	-1,4876915E+000	1,2349756E-002	2,3295753E+000
2	1	0	0	10/01/2024 18:59:48.2752	8,5554105E-001	8,5490328E-001	1,620925711287937E+001	2,7205706E-001	10	-1,4911977E+000	1,3857347E-002	2,3461010E+000
2	1	0	1	10/01/2024 18:59:50.8750	8,6854005E-001	8,6790150E-001	1,763287144926396E+001	3,1595758E-001	10	-1,4923310E+000	1,5303596E-002	2,3602326E+000
2	1	0	0	10/01/2024 18:59:53.4748	8,8153905E-001	8,8092828E-001	1,904166049049013E+001	3,6380148E-001	10	-1,4944457E+000	1,6774338E-002	2,3753738E+000
2	1	0	1	10/01/2024 18:59:56.0746	8,9453793E-001	8,9392018E-001	2,036081057800459E+001	4,1503465E-001	10	-1,4963675E+000	1,8200940E-002	2,3902876E+000
2	1	0	0	10/01/2024 18:59:57.1568	8,9998782E-001	8,9934760E-001	2,125947362726384E+001	4,3769458E-001	10	-1,4985048E+000	1,9119658E-002	2,3978524E+000