File: fig_5_ni90fe10_ceo2_tio2_zro2/EIS_1/TiO2_EIS_1.mpt
EC-Lab ASCII FILE
Nb header lines : 65

Potentio Electrochemical Impedance Spectroscopy

Run on channel : 1 (SN 10336)
User :
CE vs. WE compliance from -10 V to 10 V
Electrode connection : standard
Potential control : Ewe
Ewe ctrl range : min = -10,00 V, max = 10,00 V
Safety Limits :
	Do not start on E overload
Acquisition started on : 10/07/2024 14:26:36.787
Technique started on : 10/07/2024 14:31:37.866
Loaded Setting File :  C:\EC-lab data\Neethu\2024_10_01_Ni90Fe10_TiO2\OCP+EIS_1.mps
Saved on :
	File : OCP+EIS_1_02_PEIS_C01.mpr
	Directory : C:\EC-lab data\Neethu\2024_10_07_Ni90Fe10_TiO2\
	Host : 10.54.33.65
Device : VMP3 (SN 0498)
Address : USB
EC-Lab for windows v11.52 (software)
Internet server v11.52 (firmware)
Command interpretor v11.50 (firmware)
Electrode material :
Initial state :
Electrolyte :
Comments :
Electrode surface area : 0,001 cm²
Characteristic mass : 0,001 g
Volume (V) : 0,001 cm³
Thickness (t) : 0,000 cm
Diameter (d) : 0,000 cm
Cell constant (k=t/A) : 0,000 cm-1
Cycle Definition : Charge/Discharge alternance
Mode                Single sine
E (V)               0,7000
vs.                 Ref
tE (h:m:s)          0:00:0,0000
record              0
dI                  0,000
unit dI             mA
dt (s)              0,000
fi                  200,000
unit fi             kHz
ff                  0,100
unit ff             Hz
Nd                  10
Points              per decade
spacing             Logarithmic
Va (mV)             10,0
pw                  0,10
Na                  2
corr                0
E range min (V)     -10,000
E range max (V)     10,000
I Range             Auto
Bandwidth           5
nc cycles           0
goto Ns'            0
nr cycles           0
inc. cycle          0

freq/Hz	Re(Z)/Ohm	-Im(Z)/Ohm	|Z|/Ohm	Phase(Z)/deg	time/s	<Ewe>/V	<I>/mA	Cs/µF	Cp/µF	cycle number	I Range	|Ewe|/V	|I|/A	Ns	(Q-Qo)/mA.h	Re(Y)/Ohm-1	Im(Y)/Ohm-1	|Y|/Ohm-1	Phase(Y)/deg	Re(C)/nF	Im(C)/nF	|C|/nF	Phase(C)/deg	Re(M)	Im(M)	|M|	Phase(M)/deg	Re(Permittivity)	Im(Permittivity)	|Permittivity|	Phase(Permittivity)/deg	Re(Resistivity)/Ohm.cm	Im(Resistivity)/Ohm.cm	|Resistivity|/Ohm.cm	Phase(Resistivity)/deg	Re(Conductivity)/mS/cm	Im(Conductivity)/mS/cm	|Conductivity|/mS/cm	Phase(Conductivity)/deg	Tan(Delta)	Loss Angle(Delta)/deg	dq/mA.h
1,9999814E+005	5,2184334E+000	-5,2384001E-001	5,2446599E+000	5,7322979E+000	10/07/2024 14:31:37.8659	6,9910830E-001	5,3204846E+000	-1,5191320E+000	-1,5155078E-002	1,000000000000000E+000	10	9,1273692E-003	1,7403167E-003	0	1,210314173149825E-003	1,8971667E-001	-1,9044258E-002	1,9067013E-001	-5,7322979E+000	-1,5155085E+001	1,5097314E+002	1,5173189E+002	-9,5732300E+001	0,0000000E+000	0,0000000E+000	0,0000000E+000	9,5732300E+001	0,0000000E+000	0,0000000E+000	0,0000000E+000	-9,5732300E+001	0,0000000E+000	0,0000000E+000	0,0000000E+000	5,7322979E+000	0,0000000E+000	0,0000000E+000	0,0000000E+000	-5,7322979E+000	9,9618835E+000	8,4267700E+001	1,210314173149825E-003
6,3233004E+004	4,9474354E+000	-1,1463580E-002	4,9474487E+000	1,3275839E-001	10/07/2024 14:31:39.9779	6,9911414E-001	4,8837152E+000	-2,1956143E+002	-1,1787832E-003	1,000000000000000E+000	10	1,0397155E-002	2,1015184E-003	0	4,104847129228318E-003	2,0212384E-001	-4,6833613E-004	2,0212437E-001	-1,3275839E-001	-1,1787895E+000	5,0873761E+002	5,0873898E+002	-9,0132759E+001	0,0000000E+000	0,0000000E+000	0,0000000E+000	9,0132759E+001	0,0000000E+000	0,0000000E+000	0,0000000E+000	-9,0132759E+001	0,0000000E+000	0,0000000E+000	0,0000000E+000	1,3275839E-001	0,0000000E+000	0,0000000E+000	0,0000000E+000	-1,3275839E-001	4,3157858E+002	8,9867241E+001	5,604503303039306E-004
1,9995176E+004	5,0482631E+000	1,1650024E-001	5,0496073E+000	-1,3219968E+000	10/07/2024 14:31:42.0879	6,9912291E-001	4,6455188E+000	6,8323174E+001	3,6366921E-002	1,000000000000000E+000	10	1,0196278E-002	2,0192219E-003	0	6,835898068873160E-003	1,9798249E-001	4,5688995E-003	1,9803520E-001	1,3219968E+000	3,6366970E+001	1,5758748E+003	1,5762943E+003	-8,8678001E+001	0,0000000E+000	0,0000000E+000	0,0000000E+000	8,8678001E+001	0,0000000E+000	0,0000000E+000	0,0000000E+000	-8,8678001E+001	0,0000000E+000	0,0000000E+000	0,0000000E+000	-1,3219968E+000	0,0000000E+000	0,0000000E+000	0,0000000E+000	1,3219968E+000	4,3332638E+001	8,8678001E+001	5,341482650383063E-004
6,3238188E+003	5,2036681E+000	3,3521169E-001	5,2144537E+000	-3,6858065E+000	10/07/2024 14:31:44.0927	6,9918048E-001	4,4746752E+000	7,5079529E+001	3,1027174E-001	1,000000000000000E+000	10	1,0334614E-002	1,9819168E-003	0	9,308763185400153E-003	1,9137797E-001	1,2328251E-002	1,9177464E-001	3,6858065E+000	3,1027173E+002	4,8165122E+003	4,8264956E+003	-8,6314194E+001	0,0000000E+000	0,0000000E+000	0,0000000E+000	8,6314194E+001	0,0000000E+000	0,0000000E+000	0,0000000E+000	-8,6314194E+001	0,0000000E+000	0,0000000E+000	0,0000000E+000	-3,6858065E+000	0,0000000E+000	0,0000000E+000	0,0000000E+000	3,6858065E+000	1,5523528E+001	8,6314194E+001	4,751410113064975E-004
1,9980818E+003	5,5248089E+000	8,7389129E-001	5,5934963E+000	-8,9883404E+000	10/07/2024 14:31:46.4203	6,9918281E-001	4,3105516E+000	9,1148483E+001	2,2248337E+000	1,000000000000000E+000	10	1,0734777E-002	1,9191534E-003	0	1,209599669511663E-002	1,7658368E-001	2,7931271E-002	1,7877905E-001	8,9883404E+000	2,2248342E+003	1,4065573E+004	1,4240443E+004	-8,1011658E+001	0,0000000E+000	0,0000000E+000	0,0000000E+000	8,1011658E+001	0,0000000E+000	0,0000000E+000	0,0000000E+000	-8,1011658E+001	0,0000000E+000	0,0000000E+000	0,0000000E+000	-8,9883404E+000	0,0000000E+000	0,0000000E+000	0,0000000E+000	8,9883404E+000	6,3220778E+000	8,1011658E+001	5,511329103032037E-004
6,3181964E+002	6,4050679E+000	2,0984681E+000	6,7400641E+000	-1,8140150E+001	10/07/2024 14:31:48.7436	6,9917870E-001	4,1717024E+000	1,2003963E+002	1,1635936E+001	1,000000000000000E+000	10	1,0707235E-002	1,5885954E-003	0	1,478256662380012E-002	1,4099240E-001	4,6192799E-002	1,4836654E-001	1,8140150E+001	1,1635937E+004	3,5515891E+004	3,7373434E+004	-7,1859848E+001	0,0000000E+000	0,0000000E+000	0,0000000E+000	7,1859848E+001	0,0000000E+000	0,0000000E+000	0,0000000E+000	-7,1859848E+001	0,0000000E+000	0,0000000E+000	0,0000000E+000	-1,8140150E+001	0,0000000E+000	0,0000000E+000	0,0000000E+000	1,8140150E+001	3,0522590E+000	7,1859848E+001	5,311484434177786E-004
1,9980818E+002	9,1794624E+000	3,4915078E+000	9,8210564E+000	-2,0824854E+001	10/07/2024 14:31:51.0673	6,9917822E-001	4,0438089E+000	2,2813600E+002	2,8833904E+001	1,000000000000000E+000	10	1,0658810E-002	1,0853017E-003	0	1,738362913468180E-002	9,5170163E-002	3,6199003E-002	1,0182204E-001	2,0824854E+001	2,8833904E+004	7,5806719E+004	8,1105195E+004	-6,9175148E+001	0,0000000E+000	0,0000000E+000	0,0000000E+000	6,9175148E+001	0,0000000E+000	0,0000000E+000	0,0000000E+000	-6,9175148E+001	0,0000000E+000	0,0000000E+000	0,0000000E+000	-2,0824854E+001	0,0000000E+000	0,0000000E+000	0,0000000E+000	2,0824854E+001	2,6290827E+000	6,9175148E+001	5,145332988747940E-004
6,3160763E+001	1,2484073E+001	2,6044960E+000	1,2752861E+001	-1,1784332E+001	10/07/2024 14:31:53.4080	6,9917840E-001	3,9394674E+000	9,6749579E+002	4,0353500E+001	1,000000000000000E+000	10	1,0652833E-002	8,3532883E-004	0	1,992884443029389E-002	7,6761074E-002	1,6014317E-002	7,8413777E-002	1,1784332E+001	4,0353500E+004	1,9342553E+005	1,9759008E+005	-7,8215668E+001	0,0000000E+000	0,0000000E+000	0,0000000E+000	7,8215668E+001	0,0000000E+000	0,0000000E+000	0,0000000E+000	-7,8215668E+001	0,0000000E+000	0,0000000E+000	0,0000000E+000	-1,1784332E+001	0,0000000E+000	0,0000000E+000	0,0000000E+000	1,1784332E+001	4,7932777E+000	7,8215668E+001	5,145089525828775E-004
1,9980818E+001	1,3955371E+001	1,2393923E+000	1,4010299E+001	-5,0751872E+000	10/07/2024 14:31:55.7133	6,9918293E-001	3,8254757E+000	6,4268486E+003	5,0294544E+001	1,000000000000000E+000	10	1,0652055E-002	7,6030177E-004	0	2,237049512138712E-002	7,1096234E-002	6,3141361E-003	7,1376063E-002	5,0751872E+000	5,0294547E+004	5,6630900E+005	5,6853800E+005	-8,4924812E+001	0,0000000E+000	0,0000000E+000	0,0000000E+000	8,4924812E+001	0,0000000E+000	0,0000000E+000	0,0000000E+000	-8,4924812E+001	0,0000000E+000	0,0000000E+000	0,0000000E+000	-5,0751872E+000	0,0000000E+000	0,0000000E+000	0,0000000E+000	5,0751872E+000	1,1259850E+001	8,4924812E+001	4,857745845677705E-004
6,3105812E+000	1,4589722E+001	5,6050998E-001	1,4600485E+001	-2,2001154E+000	10/07/2024 14:31:58.3576	6,9916427E-001	3,7100561E+000	4,4995328E+004	6,6313133E+001	1,000000000000000E+000	11	1,0653184E-002	7,2964589E-004	0	2,506343715248536E-002	6,8440393E-002	2,6293527E-003	6,8490878E-002	2,2001154E+000	6,6313242E+004	1,7260890E+006	1,7273624E+006	-8,7799881E+001	0,0000000E+000	0,0000000E+000	0,0000000E+000	8,7799881E+001	0,0000000E+000	0,0000000E+000	0,0000000E+000	-8,7799881E+001	0,0000000E+000	0,0000000E+000	0,0000000E+000	-2,2001154E+000	0,0000000E+000	0,0000000E+000	0,0000000E+000	2,2001154E+000	2,6029369E+001	8,7799881E+001	3,925167649535231E-004
1,9970603E+000	1,5048873E+001	3,1455305E-001	1,5052160E+001	-1,1974277E+000	10/07/2024 14:32:02.0681	6,9918913E-001	3,6231184E+000	2,5335827E+005	1,1064332E+002	1,000000000000000E+000	11	1,0651187E-002	7,0761848E-004	0	2,879672036075204E-002	6,6421144E-002	1,3883413E-003	6,6435650E-002	1,1974277E+000	1,1064314E+005	5,2934070E+006	5,2945630E+006	-8,8802574E+001	0,0000000E+000	0,0000000E+000	0,0000000E+000	8,8802574E+001	0,0000000E+000	0,0000000E+000	0,0000000E+000	-8,8802574E+001	0,0000000E+000	0,0000000E+000	0,0000000E+000	-1,1974277E+000	0,0000000E+000	0,0000000E+000	0,0000000E+000	1,1974277E+000	4,7842083E+001	8,8802574E+001	1,087601243867073E-003
6,3126212E-001	1,5928168E+001	-1,0927513E-002	1,5928172E+001	3,9307740E-002	10/07/2024 14:32:13.3272	6,9918966E-001	3,4016514E+000	-2,3072202E+007	-1,0859251E+001	1,000000000000000E+000	11	1,0643867E-002	6,6824158E-004	0	3,972924874079031E-002	6,2781826E-002	-4,3071446E-005	6,2781841E-002	-3,9307740E-002	-1,0858947E+004	1,5828667E+007	1,5828671E+007	-9,0039307E+001	0,0000000E+000	0,0000000E+000	0,0000000E+000	9,0039307E+001	0,0000000E+000	0,0000000E+000	0,0000000E+000	-9,0039307E+001	0,0000000E+000	0,0000000E+000	0,0000000E+000	3,9307740E-002	0,0000000E+000	0,0000000E+000	0,0000000E+000	-3,9307740E-002	1,4576206E+003	8,9960693E+001	3,226749953304520E-003
1,9933917E-001	1,6922689E+001	7,1959698E-001	1,6937983E+001	-2,4348993E+000	10/07/2024 14:32:48.5367	6,9920027E-001	3,0148432E+000	1,1095278E+006	2,0025966E+003	1,000000000000000E+000	11	1,0644407E-002	6,2843418E-004	0	7,021459358811213E-002	5,8985602E-002	2,5082219E-003	5,9038907E-002	2,4348993E+000	2,0025958E+006	4,7094860E+007	4,7137420E+007	-8,7565102E+001	0,0000000E+000	0,0000000E+000	0,0000000E+000	8,7565102E+001	0,0000000E+000	0,0000000E+000	0,0000000E+000	-8,7565102E+001	0,0000000E+000	0,0000000E+000	0,0000000E+000	-2,4348993E+000	0,0000000E+000	0,0000000E+000	0,0000000E+000	2,4348993E+000	2,3516899E+001	8,7565102E+001	8,895251512108793E-003
9,9904090E-002	1,9260498E+001	1,8765241E-001	1,9261412E+001	-5,5820733E-001	10/07/2024 14:33:39.6277	6,9919837E-001	2,8081086E+000	8,4895120E+006	8,0577686E+002	1,000000000000000E+000	11	1,0646465E-002	5,5273547E-004	0	1,110574954664997E-001	5,1914811E-002	5,0579896E-004	5,1917274E-002	5,5820733E-001	8,0577294E+005	8,2704304E+007	8,2708232E+007	-8,9441795E+001	0,0000000E+000	0,0000000E+000	0,0000000E+000	8,9441795E+001	0,0000000E+000	0,0000000E+000	0,0000000E+000	-8,9441795E+001	0,0000000E+000	0,0000000E+000	0,0000000E+000	-5,5820733E-001	0,0000000E+000	0,0000000E+000	0,0000000E+000	5,5820733E-001	1,0263923E+002	8,9441795E+001	1,674301524833176E-002