File: fig_si_ecsa/TiO2/10.txt
EC-Lab ASCII FILE
Ewe/V	<I>/mA	cycle number
6,3204400E-002	1,964092999696732E-002	1,000000000000000E+000
8,0288857E-002	-9,628641245298126E-004	1,000000000000000E+000
9,6333735E-002	-2,899302980885385E-004	1,000000000000000E+000
1,1227889E-001	8,945090361631072E-005	1,000000000000000E+000
1,2825587E-001	3,451196463391550E-004	1,000000000000000E+000
1,4428802E-001	5,660814887825695E-004	1,000000000000000E+000
1,6024378E-001	7,498895067530788E-004	1,000000000000000E+000
1,7624940E-001	9,247086435843106E-004	1,000000000000000E+000
1,9227521E-001	1,086085484901023E-003	1,000000000000000E+000
2,0829882E-001	1,244127789086634E-003	1,000000000000000E+000
2,2428007E-001	1,403001130071339E-003	1,000000000000000E+000
2,4025919E-001	1,568024105735179E-003	1,000000000000000E+000
2,5626588E-001	1,750674207330494E-003	1,000000000000000E+000
2,7224493E-001	1,956622098482007E-003	1,000000000000000E+000
2,8828242E-001	2,178805624512109E-003	1,000000000000000E+000
3,0424139E-001	2,415972016697871E-003	1,000000000000000E+000
3,2025230E-001	2,667246787933869E-003	1,000000000000000E+000
3,3621126E-001	2,929291271828807E-003	1,000000000000000E+000
3,5226142E-001	3,190617087831789E-003	1,000000000000000E+000
3,5991842E-001	1,917601152888023E-003	1,000000000000000E+000
3,4397006E-001	1,109843123736532E-003	1,000000000000000E+000
3,2795277E-001	6,346386971590248E-004	1,000000000000000E+000
3,1196412E-001	2,747699408587314E-004	1,000000000000000E+000
2,9598290E-001	-1,820005519553649E-005	1,000000000000000E+000
2,7995607E-001	-2,588077859863236E-004	1,000000000000000E+000
2,6396739E-001	-4,624932519416486E-004	1,000000000000000E+000
2,4796815E-001	-6,521557858192193E-004	1,000000000000000E+000
2,3197207E-001	-8,119492318251591E-004	1,000000000000000E+000
2,1595585E-001	-9,566246854201719E-004	1,000000000000000E+000
1,9992580E-001	-1,082732772138783E-003	1,000000000000000E+000
1,8397240E-001	-1,198688261876732E-003	1,000000000000000E+000
1,6797715E-001	-1,306071999823426E-003	1,000000000000000E+000
1,5197259E-001	-1,414248555563442E-003	1,000000000000000E+000
1,3597651E-001	-1,510595817510167E-003	1,000000000000000E+000
1,1998361E-001	-1,604077249390289E-003	1,000000000000000E+000
1,0392919E-001	-1,696473711086178E-003	1,000000000000000E+000
8,8001005E-002	-1,787049108383197E-003	1,000000000000000E+000
7,1998566E-002	-1,872048173498592E-003	1,000000000000000E+000
7,0179261E-002	-6,856719884564414E-004	2,000000000000000E+000
8,6184010E-002	-2,152493164503414E-004	2,000000000000000E+000
1,0215550E-001	7,707516528996543E-005	2,000000000000000E+000
1,1816642E-001	3,076759996997890E-004	2,000000000000000E+000
1,3421874E-001	5,016770870177548E-004	2,000000000000000E+000
1,5018299E-001	6,776302464762307E-004	2,000000000000000E+000
1,6615997E-001	8,333079121830107E-004	2,000000000000000E+000
1,8215711E-001	9,861823902476193E-004	2,000000000000000E+000
1,9821684E-001	1,135006880590313E-003	2,000000000000000E+000
2,1412697E-001	1,292965604618617E-003	2,000000000000000E+000
2,3016338E-001	1,447788283796939E-003	2,000000000000000E+000
2,4617961E-001	1,618010945363766E-003	2,000000000000000E+000
2,6218840E-001	1,802180660888553E-003	2,000000000000000E+000
2,7815267E-001	2,010896065459952E-003	2,000000000000000E+000
2,9419646E-001	2,249991095461021E-003	2,000000000000000E+000
3,1018192E-001	2,494008758394223E-003	2,000000000000000E+000
3,2615149E-001	2,744726760957522E-003	2,000000000000000E+000
3,4216139E-001	3,006538944545251E-003	2,000000000000000E+000
3,5815537E-001	3,258868125461348E-003	2,000000000000000E+000
3,5395446E-001	1,501731315447541E-003	2,000000000000000E+000
3,3798179E-001	8,893393411805537E-004	2,000000000000000E+000
3,2192734E-001	4,653401440885292E-004	2,000000000000000E+000
3,0597049E-001	1,293443500113906E-004	2,000000000000000E+000
2,8996065E-001	-1,404051389815517E-004	2,000000000000000E+000
2,7393377E-001	-3,586549046643321E-004	2,000000000000000E+000
2,5796744E-001	-5,588614132513469E-004	2,000000000000000E+000
2,4197453E-001	-7,366161334411338E-004	2,000000000000000E+000
2,2594662E-001	-8,851054322062870E-004	2,000000000000000E+000
2,0997706E-001	-1,022422116942902E-003	2,000000000000000E+000
1,9398205E-001	-1,141805926265619E-003	2,000000000000000E+000
1,7793506E-001	-1,258028673031795E-003	2,000000000000000E+000
1,6195384E-001	-1,364300180823723E-003	2,000000000000000E+000
1,4600337E-001	-1,470333714813150E-003	2,000000000000000E+000
1,3001683E-001	-1,562502755809374E-003	2,000000000000000E+000
1,1395817E-001	-1,654317816751748E-003	2,000000000000000E+000
9,7974822E-002	-1,735415990373843E-003	2,000000000000000E+000
8,1970252E-002	-1,828356484043912E-003	2,000000000000000E+000
6,5960385E-002	-1,915365501460022E-003	2,000000000000000E+000
7,6148480E-002	-4,904643353290383E-004	3,000000000000000E+000
9,2215627E-002	-1,146366163027328E-004	3,000000000000000E+000
1,0821489E-001	1,511934067650602E-004	3,000000000000000E+000
1,2416536E-001	3,598477743031823E-004	3,000000000000000E+000
1,4018689E-001	5,509849470399803E-004	3,000000000000000E+000
1,5619889E-001	7,191760849781085E-004	3,000000000000000E+000
1,7217904E-001	8,749551087492841E-004	3,000000000000000E+000
1,8814649E-001	1,027262445050945E-003	3,000000000000000E+000
2,0414256E-001	1,178715644561668E-003	3,000000000000000E+000
2,2013548E-001	1,335532273649865E-003	3,000000000000000E+000
2,3617291E-001	1,498372848867870E-003	3,000000000000000E+000
2,5214776E-001	1,669543233421991E-003	3,000000000000000E+000
2,6815128E-001	1,869648626544165E-003	3,000000000000000E+000
2,8415051E-001	2,079519615681077E-003	3,000000000000000E+000
3,0019543E-001	2,319307015568484E-003	3,000000000000000E+000
3,1614903E-001	2,567674449959746E-003	3,000000000000000E+000
3,3214408E-001	2,818936017219028E-003	3,000000000000000E+000
3,4813586E-001	3,087339331546868E-003	3,000000000000000E+000
3,6366004E-001	3,245850680051024E-003	3,000000000000000E+000
3,4798104E-001	1,210312798422011E-003	3,000000000000000E+000
3,3194679E-001	6,966442690302041E-004	3,000000000000000E+000
3,1590930E-001	3,152077885223070E-004	3,000000000000000E+000
2,9999277E-001	9,420236932503112E-006	3,000000000000000E+000
2,8399143E-001	-2,411487439954608E-004	3,000000000000000E+000
2,6795501E-001	-4,510110579168995E-004	3,000000000000000E+000
2,5200561E-001	-6,399959495832219E-004	3,000000000000000E+000
2,3599999E-001	-8,077795318294466E-004	3,000000000000000E+000
2,1996573E-001	-9,480300371554514E-004	3,000000000000000E+000
2,0399722E-001	-1,077259770412366E-003	3,000000000000000E+000
1,8798949E-001	-1,199060574705341E-003	3,000000000000000E+000
1,7196159E-001	-1,307502039034496E-003	3,000000000000000E+000
1,5595172E-001	-1,406104314136661E-003	3,000000000000000E+000
1,3995351E-001	-1,509580004898863E-003	3,000000000000000E+000
1,2396381E-001	-1,606398644206045E-003	3,000000000000000E+000
1,0799635E-001	-1,695781364644601E-003	3,000000000000000E+000
9,1997109E-002	-1,781958995841841E-003	3,000000000000000E+000
7,5994663E-002	-1,872231780133141E-003	3,000000000000000E+000
6,6193759E-002	-9,161478923218678E-004	4,000000000000000E+000
8,2171805E-002	-3,404990632050074E-004	4,000000000000000E+000
9,8188028E-002	-1,167867898473955E-005	4,000000000000000E+000
1,1416928E-001	2,225277217307192E-004	4,000000000000000E+000
1,3018338E-001	4,271170233304611E-004	4,000000000000000E+000
1,4618795E-001	6,086626249102514E-004	4,000000000000000E+000
1,6218190E-001	7,712494286722538E-004	4,000000000000000E+000
1,7813237E-001	9,237074815178804E-004	4,000000000000000E+000
1,9419740E-001	1,068769612309685E-003	4,000000000000000E+000
2,1017969E-001	1,222158118050883E-003	4,000000000000000E+000
2,2615880E-001	1,376122320733780E-003	4,000000000000000E+000
2,4218248E-001	1,545911405965279E-003	4,000000000000000E+000
2,5818703E-001	1,728463038927180E-003	4,000000000000000E+000
2,7417672E-001	1,931824391013599E-003	4,000000000000000E+000
2,9014203E-001	2,154667096975683E-003	4,000000000000000E+000
3,0619755E-001	2,398845947162168E-003	4,000000000000000E+000
3,2213843E-001	2,647214150110152E-003	4,000000000000000E+000
3,3817485E-001	2,911318553001544E-003	4,000000000000000E+000
3,5416055E-001	3,169252592417363E-003	4,000000000000000E+000
3,5799196E-001	1,709691534213364E-003	4,000000000000000E+000
3,4192058E-001	9,855721440948824E-004	4,000000000000000E+000
3,2594785E-001	5,376372176181541E-004	4,000000000000000E+000
3,0997616E-001	1,895240819911074E-004	4,000000000000000E+000
2,9397583E-001	-9,854803798537695E-005	4,000000000000000E+000
2,7795959E-001	-3,366323729462294E-004	4,000000000000000E+000
2,6199108E-001	-5,399471885067634E-004	4,000000000000000E+000
2,4597381E-001	-7,154875914878837E-004	4,000000000000000E+000
2,2996287E-001	-8,653577644037345E-004	4,000000000000000E+000
2,1392012E-001	-1,007498966727229E-003	4,000000000000000E+000
1,9798027E-001	-1,128555305142609E-003	4,000000000000000E+000
1,8203087E-001	-1,241158829846732E-003	4,000000000000000E+000
1,6592234E-001	-1,354818032268668E-003	4,000000000000000E+000
1,4998461E-001	-1,454051886631298E-003	4,000000000000000E+000
1,3400339E-001	-1,551112507446235E-003	4,000000000000000E+000
1,1795533E-001	-1,649103086459006E-003	4,000000000000000E+000
1,0198258E-001	-1,735571257422984E-003	4,000000000000000E+000
8,5992880E-002	-1,821040366377459E-003	4,000000000000000E+000
6,9978759E-002	-1,910345237572789E-003	4,000000000000000E+000
7,2142832E-002	-6,323136730551826E-004	4,000000000000000E+000
8,8168606E-002	-2,060843491565097E-004	4,000000000000000E+000
1,0418060E-001	7,983109246183565E-005	4,000000000000000E+000
1,2017243E-001	2,980426309235882E-004	4,000000000000000E+000
1,3615578E-001	4,826298258598788E-004	4,000000000000000E+000
1,5214550E-001	6,546310998803342E-004	4,000000000000000E+000
1,6817659E-001	8,162992527542372E-004	4,000000000000000E+000
1,8415943E-001	9,636936343357730E-004	4,000000000000000E+000
2,0015495E-001	1,113341337730632E-003	4,000000000000000E+000
2,1616271E-001	1,266689158876907E-003	4,000000000000000E+000
2,3219295E-001	1,424277210715526E-003	4,000000000000000E+000
2,4820155E-001	1,591275542051769E-003	4,000000000000000E+000
2,4928258E-001	1,716178478091024E-003	4,000000000000000E+000