File: fig_si_ecsa/TiO2/100.txt
EC-Lab ASCII FILE
Ewe/V	<I>/mA	cycle number
6,5457575E-002	-5,856307595968246E-002	1,000000000000000E+000
8,5072085E-002	-1,874211016102992E-003	1,000000000000000E+000
1,0710529E-001	2,400317012062362E-003	1,000000000000000E+000
1,2302286E-001	2,778072514047381E-003	1,000000000000000E+000
1,3905288E-001	3,686239546570706E-003	1,000000000000000E+000
1,5505004E-001	4,204658612757664E-003	1,000000000000000E+000
1,7103657E-001	4,751785972378755E-003	1,000000000000000E+000
1,8705384E-001	5,081734959983597E-003	1,000000000000000E+000
2,0307326E-001	5,773830793057454E-003	1,000000000000000E+000
2,1902904E-001	6,011166760193504E-003	1,000000000000000E+000
2,3506118E-001	6,491426717224788E-003	1,000000000000000E+000
2,5109226E-001	6,831679126561435E-003	1,000000000000000E+000
2,6709154E-001	7,422701099535023E-003	1,000000000000000E+000
2,8308228E-001	8,078750319125742E-003	1,000000000000000E+000
2,9905820E-001	8,605379582958385E-003	1,000000000000000E+000
3,1505111E-001	9,189998829646800E-003	1,000000000000000E+000
3,3106413E-001	1,005137442229583E-002	1,000000000000000E+000
3,4704223E-001	1,076563044625800E-002	1,000000000000000E+000
3,6305422E-001	3,161284687798298E-003	1,000000000000000E+000
3,4706873E-001	-8,433680790807981E-004	1,000000000000000E+000
3,2805991E-001	-2,458810812741922E-003	1,000000000000000E+000
3,1207022E-001	-3,234029817475753E-003	1,000000000000000E+000
2,9609957E-001	-3,857986844094635E-003	1,000000000000000E+000
2,8007168E-001	-4,413490034494302E-003	1,000000000000000E+000
2,6406077E-001	-4,718259004019062E-003	1,000000000000000E+000
2,4808803E-001	-5,041546342302666E-003	1,000000000000000E+000
2,3212804E-001	-5,420325727350732E-003	1,000000000000000E+000
2,1607785E-001	-5,717412003125179E-003	1,000000000000000E+000
2,0005099E-001	-6,028922931970229E-003	1,000000000000000E+000
1,8406977E-001	-6,152469186215763E-003	1,000000000000000E+000
1,6810656E-001	-6,602623852813856E-003	1,000000000000000E+000
1,5205321E-001	-6,791500504025133E-003	1,000000000000000E+000
1,3611440E-001	-7,127938290068397E-003	1,000000000000000E+000
1,2007061E-001	-7,261363727997794E-003	1,000000000000000E+000
1,0407771E-001	-7,644978163928770E-003	1,000000000000000E+000
8,8126175E-002	-7,932168483320186E-003	1,000000000000000E+000
7,2103582E-002	-8,146105463513062E-003	1,000000000000000E+000
6,9298781E-002	-9,726857811895376E-004	2,000000000000000E+000
8,5270457E-002	1,804753644036192E-003	2,000000000000000E+000
1,0131640E-001	2,576347421684961E-003	2,000000000000000E+000
1,1726580E-001	3,311136880963926E-003	2,000000000000000E+000
1,3331702E-001	3,836207178917694E-003	2,000000000000000E+000
1,4928024E-001	4,386312932587733E-003	2,000000000000000E+000
1,6527101E-001	4,651994065675874E-003	2,000000000000000E+000
1,8126391E-001	5,092538929602621E-003	2,000000000000000E+000
1,9725361E-001	5,482592919886689E-003	2,000000000000000E+000
2,1327621E-001	5,972565313843242E-003	2,000000000000000E+000
2,2925638E-001	6,237184124377886E-003	2,000000000000000E+000
2,4529384E-001	6,755739423371996E-003	2,000000000000000E+000
2,6127613E-001	7,138975567714742E-003	2,000000000000000E+000
2,7723828E-001	7,753318436799536E-003	2,000000000000000E+000
2,9323858E-001	8,178728051360773E-003	2,000000000000000E+000
3,0924842E-001	8,944917289126275E-003	2,000000000000000E+000
3,2523921E-001	9,613928206413755E-003	2,000000000000000E+000
3,4124586E-001	1,041745484528501E-002	2,000000000000000E+000
3,6022502E-001	1,125088064549752E-002	2,000000000000000E+000
3,5306978E-001	-1,216765179713565E-005	2,000000000000000E+000
3,3407477E-001	-2,018610966842967E-003	2,000000000000000E+000
3,1803203E-001	-2,986698575518344E-003	2,000000000000000E+000
3,0204865E-001	-3,532186421176045E-003	2,000000000000000E+000
2,8611094E-001	-4,140226912568309E-003	2,000000000000000E+000
2,7009365E-001	-4,506165578075295E-003	2,000000000000000E+000
2,5408909E-001	-4,918688155561943E-003	2,000000000000000E+000
2,3806331E-001	-5,200522777967176E-003	2,000000000000000E+000
2,2208312E-001	-5,561067246566782E-003	2,000000000000000E+000
2,0609340E-001	-5,777421522604215E-003	2,000000000000000E+000
1,9008672E-001	-6,148318383768323E-003	2,000000000000000E+000
1,7404714E-001	-6,434178332710865E-003	2,000000000000000E+000
1,5806806E-001	-6,665448332367097E-003	2,000000000000000E+000
1,4205712E-001	-6,913971938047325E-003	2,000000000000000E+000
1,2610136E-001	-7,233787127107552E-003	2,000000000000000E+000
1,1007876E-001	-7,479693064346510E-003	2,000000000000000E+000
9,4101772E-002	-7,750717496188938E-003	2,000000000000000E+000
7,8068569E-002	-8,025786616296174E-003	2,000000000000000E+000
6,3471727E-002	-7,756806444376707E-003	3,000000000000000E+000
7,9241827E-002	1,058801432716589E-003	3,000000000000000E+000
9,5299438E-002	2,239759368724972E-003	3,000000000000000E+000
1,1129126E-001	3,018899430268604E-003	3,000000000000000E+000
1,2726401E-001	3,557262116171647E-003	3,000000000000000E+000
1,4324312E-001	4,044243988270586E-003	3,000000000000000E+000
1,5924768E-001	4,480400739945864E-003	3,000000000000000E+000
1,7530531E-001	5,007450467625570E-003	3,000000000000000E+000
1,9123985E-001	5,247718477120453E-003	3,000000000000000E+000
2,0727833E-001	5,629085506370771E-003	3,000000000000000E+000
2,2331260E-001	6,032054625393343E-003	3,000000000000000E+000
2,3925142E-001	6,584997211272516E-003	3,000000000000000E+000
2,5529948E-001	6,882789040294802E-003	3,000000000000000E+000
2,7132100E-001	7,423076172724724E-003	3,000000000000000E+000
2,8727570E-001	7,963344301970224E-003	3,000000000000000E+000
3,0322829E-001	8,668524008600034E-003	3,000000000000000E+000
3,1918299E-001	9,207689756294685E-003	3,000000000000000E+000
3,3528519E-001	9,921513469534095E-003	3,000000000000000E+000
3,5123456E-001	1,076363706508554E-002	3,000000000000000E+000
3,5903472E-001	1,211447719773179E-003	3,000000000000000E+000
3,4006944E-001	-1,594354188354265E-003	3,000000000000000E+000
3,2406169E-001	-2,732517701588208E-003	3,000000000000000E+000
3,0805501E-001	-3,307771315222544E-003	3,000000000000000E+000
2,9205790E-001	-3,992591808330156E-003	3,000000000000000E+000
2,7604380E-001	-4,360449024210915E-003	3,000000000000000E+000
2,6008162E-001	-4,861970232418050E-003	3,000000000000000E+000
2,4409194E-001	-5,110974062618963E-003	3,000000000000000E+000
2,2807994E-001	-5,408278490196816E-003	3,000000000000000E+000
2,1208280E-001	-5,720238229615550E-003	3,000000000000000E+000
1,9608036E-001	-6,091450630467260E-003	3,000000000000000E+000
1,8009064E-001	-6,321761443056559E-003	3,000000000000000E+000
1,6409457E-001	-6,564416622697730E-003	3,000000000000000E+000
1,4807621E-001	-6,798666552640491E-003	3,000000000000000E+000
1,3213636E-001	-7,171024772105711E-003	3,000000000000000E+000
1,1613709E-001	-7,339167285358092E-003	3,000000000000000E+000
1,0012191E-001	-7,685064728624000E-003	3,000000000000000E+000
8,4051579E-002	-7,873877182040148E-003	3,000000000000000E+000
6,8120211E-002	-8,269299985840875E-003	3,000000000000000E+000
7,3290639E-002	1,870729499131589E-004	4,000000000000000E+000
8,9280359E-002	2,011471191609527E-003	4,000000000000000E+000
1,0527855E-001	2,735902347113652E-003	4,000000000000000E+000
1,2130222E-001	3,386878407885289E-003	4,000000000000000E+000
1,3727389E-001	3,943002139648252E-003	4,000000000000000E+000
1,5326680E-001	4,440236398093286E-003	4,000000000000000E+000
1,6925330E-001	4,771322311878781E-003	4,000000000000000E+000
1,8526423E-001	5,181369494999283E-003	4,000000000000000E+000
2,0126031E-001	5,588713945245349E-003	4,000000000000000E+000
2,1727021E-001	6,032989950553139E-003	4,000000000000000E+000
2,3325782E-001	6,356991940265309E-003	4,000000000000000E+000
2,4924642E-001	6,803135484208023E-003	4,000000000000000E+000
2,6524359E-001	7,240233273882443E-003	4,000000000000000E+000
2,8121525E-001	7,860198386576214E-003	4,000000000000000E+000
2,9724419E-001	8,346753443927629E-003	4,000000000000000E+000
3,1321591E-001	9,060893934575834E-003	4,000000000000000E+000
3,2923847E-001	9,746478190613278E-003	4,000000000000000E+000
3,4526536E-001	1,052909731758220E-002	4,000000000000000E+000
3,6362186E-001	1,131017971783876E-002	4,000000000000000E+000
3,4607580E-001	-1,180204529949446E-003	4,000000000000000E+000
3,3007652E-001	-2,426822041848534E-003	4,000000000000000E+000
3,1408685E-001	-3,142261783674855E-003	4,000000000000000E+000
2,9809502E-001	-3,884429730533157E-003	4,000000000000000E+000
2,8210104E-001	-4,445203102578585E-003	4,000000000000000E+000
2,6606676E-001	-4,756644873850729E-003	4,000000000000000E+000
2,5012055E-001	-5,020766318112754E-003	4,000000000000000E+000
2,3408839E-001	-5,431958878842923E-003	4,000000000000000E+000
2,1810822E-001	-5,791210684643971E-003	4,000000000000000E+000
2,0207930E-001	-6,008762035991010E-003	4,000000000000000E+000
1,8610229E-001	-6,186182449811062E-003	4,000000000000000E+000
1,7005637E-001	-6,596494177857584E-003	4,000000000000000E+000
1,5410803E-001	-6,770832086557578E-003	4,000000000000000E+000
1,3810663E-001	-7,104431317808708E-003	4,000000000000000E+000
1,2209040E-001	-7,223319427187874E-003	4,000000000000000E+000
1,0606356E-001	-7,716924897572921E-003	4,000000000000000E+000
9,0115219E-002	-7,903446368194011E-003	4,000000000000000E+000
7,4125499E-002	-8,182633875144826E-003	4,000000000000000E+000
6,7344755E-002	-1,548323481150266E-003	4,000000000000000E+000
8,3290979E-002	1,649071704074842E-003	4,000000000000000E+000
9,9302962E-002	2,468549562965772E-003	4,000000000000000E+000
1,1527888E-001	3,244198600643559E-003	4,000000000000000E+000
1,3128345E-001	3,867790946767674E-003	4,000000000000000E+000
1,4725621E-001	4,299581478941664E-003	4,000000000000000E+000
1,6323529E-001	4,613734263128017E-003	4,000000000000000E+000
1,7925365E-001	5,110927729320897E-003	4,000000000000000E+000
1,9528155E-001	5,540265524258667E-003	4,000000000000000E+000
2,1127023E-001	5,915695386243494E-003	4,000000000000000E+000
2,2727479E-001	6,189846455931245E-003	4,000000000000000E+000
2,4329102E-001	6,769406469377140E-003	4,000000000000000E+000
2,4935897E-001	6,848574383184314E-003	4,000000000000000E+000