File: fig_si_ecsa/TiO2/20.txt
EC-Lab ASCII FILE
Ewe/V	<I>/mA	cycle number
6,3032545E-002	-6,878280639648438E-002	1,000000000000000E+000
8,0858514E-002	-2,641841467872538E-003	1,000000000000000E+000
9,6875817E-002	-1,501761417953440E-003	1,000000000000000E+000
1,1284430E-001	-8,694536557380130E-004	1,000000000000000E+000
1,2882766E-001	-5,532201645716366E-004	1,000000000000000E+000
1,4484601E-001	-2,538317715637577E-004	1,000000000000000E+000
1,6083148E-001	7,733677085673837E-005	1,000000000000000E+000
1,7682014E-001	2,090053958286086E-004	1,000000000000000E+000
1,9282047E-001	5,027786416610114E-004	1,000000000000000E+000
2,0880061E-001	6,929761837821194E-004	1,000000000000000E+000
2,2475320E-001	8,799461668947608E-004	1,000000000000000E+000
2,4084368E-001	1,089641505266758E-003	1,000000000000000E+000
2,5681722E-001	1,402155008324866E-003	1,000000000000000E+000
2,7280083E-001	1,632238417591409E-003	1,000000000000000E+000
2,8882027E-001	1,945704133074990E-003	1,000000000000000E+000
3,0481637E-001	2,306052967065216E-003	1,000000000000000E+000
3,2079649E-001	2,667135964589694E-003	1,000000000000000E+000
3,3682761E-001	3,043870030389237E-003	1,000000000000000E+000
3,5281944E-001	3,367775936365225E-003	1,000000000000000E+000
3,5998526E-001	3,070002701456860E-003	1,000000000000000E+000
3,4400508E-001	1,982819329348920E-003	1,000000000000000E+000
3,2799736E-001	1,436655913039424E-003	1,000000000000000E+000
3,1198215E-001	9,983479657025597E-004	1,000000000000000E+000
2,9603809E-001	6,924308899114175E-004	1,000000000000000E+000
2,8003034E-001	4,612393219960917E-004	1,000000000000000E+000
2,6400241E-001	1,577391660534718E-004	1,000000000000000E+000
2,4802120E-001	4,217670395321400E-006	1,000000000000000E+000
2,3205376E-001	-1,915624667432241E-004	1,000000000000000E+000
2,1601948E-001	-3,185622428510991E-004	1,000000000000000E+000
2,0001808E-001	-4,793966061495463E-004	1,000000000000000E+000
1,8403584E-001	-7,183549403264431E-004	1,000000000000000E+000
1,6798671E-001	-7,807598665547436E-004	1,000000000000000E+000
1,5201713E-001	-9,723868756568478E-004	1,000000000000000E+000
1,3602212E-001	-1,121982350906803E-003	1,000000000000000E+000
1,2004196E-001	-1,300590316767970E-003	1,000000000000000E+000
1,0405436E-001	-1,433691426309794E-003	1,000000000000000E+000
8,8025413E-002	-1,546997042059621E-003	1,000000000000000E+000
7,2072811E-002	-1,674191289322585E-003	1,000000000000000E+000
7,0165463E-002	-1,709570351926641E-003	2,000000000000000E+000
8,6153053E-002	-1,156863371110504E-003	2,000000000000000E+000
1,0216080E-001	-7,390288517651940E-004	2,000000000000000E+000
1,1811232E-001	-4,411937964471646E-004	2,000000000000000E+000
1,3416357E-001	-2,893906270889637E-004	2,000000000000000E+000
1,5008114E-001	-7,335808260748919E-005	2,000000000000000E+000
1,6614407E-001	2,220599388709633E-004	2,000000000000000E+000
1,8211256E-001	3,237670455712731E-004	2,000000000000000E+000
1,9814362E-001	5,545223642137113E-004	2,000000000000000E+000
2,1411216E-001	7,744308759356482E-004	2,000000000000000E+000
2,3013793E-001	9,045402700427977E-004	2,000000000000000E+000
2,4614885E-001	1,139383776885720E-003	2,000000000000000E+000
2,6210353E-001	1,412562809980077E-003	2,000000000000000E+000
2,7810174E-001	1,729530128243457E-003	2,000000000000000E+000
2,9416886E-001	1,979730143906032E-003	2,000000000000000E+000
3,1008860E-001	2,327428236808544E-003	2,000000000000000E+000
3,2610378E-001	2,685289668550944E-003	2,000000000000000E+000
3,4209666E-001	3,091637609705461E-003	2,000000000000000E+000
3,5808107E-001	3,489947570617186E-003	2,000000000000000E+000
3,5401085E-001	2,402288119340377E-003	2,000000000000000E+000
3,3799344E-001	1,699144237054246E-003	2,000000000000000E+000
3,2200265E-001	1,192698493202604E-003	2,000000000000000E+000
3,0601719E-001	8,756663695142636E-004	2,000000000000000E+000
2,9001895E-001	5,188308612863110E-004	2,000000000000000E+000
2,7400485E-001	2,321021525286027E-004	2,000000000000000E+000
2,5801304E-001	1,069475245803575E-004	2,000000000000000E+000
2,4202757E-001	-6,767529843003763E-005	2,000000000000000E+000
2,2601132E-001	-2,438249351362841E-004	2,000000000000000E+000
2,1002799E-001	-4,768204456400715E-004	2,000000000000000E+000
1,9404359E-001	-6,057626866554193E-004	2,000000000000000E+000
1,7800400E-001	-8,065594617653047E-004	2,000000000000000E+000
1,6201004E-001	-8,922910324713467E-004	2,000000000000000E+000
1,4599381E-001	-1,069130474728876E-003	2,000000000000000E+000
1,3003592E-001	-1,218095070844020E-003	2,000000000000000E+000
1,1402076E-001	-1,346945858588071E-003	2,000000000000000E+000
9,8050125E-002	-1,509522243294571E-003	2,000000000000000E+000
8,2063600E-002	-1,601496660056358E-003	2,000000000000000E+000
6,6015542E-002	-1,764638905856201E-003	2,000000000000000E+000
7,6125145E-002	-1,459703214937625E-003	3,000000000000000E+000
9,2136078E-002	-9,850052617231837E-004	3,000000000000000E+000
1,0818307E-001	-6,548712380107565E-004	3,000000000000000E+000
1,2407520E-001	-4,226037763820152E-004	3,000000000000000E+000
1,4010626E-001	-1,782455537619608E-004	3,000000000000000E+000
1,5611720E-001	4,863678167213122E-005	3,000000000000000E+000
1,7210586E-001	2,203739772952493E-004	3,000000000000000E+000
1,8811466E-001	3,944161139602144E-004	3,000000000000000E+000
2,0408741E-001	5,744652693027621E-004	3,000000000000000E+000
2,2009729E-001	7,256140591683398E-004	3,000000000000000E+000
2,3610076E-001	1,070255667526807E-003	3,000000000000000E+000
2,5212231E-001	1,253950884877971E-003	3,000000000000000E+000
2,6811734E-001	1,473487978336782E-003	3,000000000000000E+000
2,8414100E-001	1,781742521508790E-003	3,000000000000000E+000
3,0013070E-001	2,131055859468628E-003	3,000000000000000E+000
3,1611511E-001	2,436395189660177E-003	3,000000000000000E+000
3,3208996E-001	2,843807322885056E-003	3,000000000000000E+000
3,4809667E-001	3,162127568901718E-003	3,000000000000000E+000
3,6346909E-001	3,328702909251056E-003	3,000000000000000E+000
3,4801814E-001	2,095039990342266E-003	3,000000000000000E+000
3,3201891E-001	1,439809694029795E-003	3,000000000000000E+000
3,1600693E-001	9,981121194397469E-004	3,000000000000000E+000
3,0004054E-001	7,192621344445285E-004	3,000000000000000E+000
2,8403702E-001	4,584185391515207E-004	3,000000000000000E+000
2,6801440E-001	1,906275948613261E-004	3,000000000000000E+000
2,5205547E-001	-3,577428977947700E-005	3,000000000000000E+000
2,3605834E-001	-2,085519717083019E-004	3,000000000000000E+000
2,2000924E-001	-3,187420304331884E-004	3,000000000000000E+000
2,0400997E-001	-5,315264425639179E-004	3,000000000000000E+000
1,8803191E-001	-7,056275700594791E-004	3,000000000000000E+000
1,7201355E-001	-8,308529142798064E-004	3,000000000000000E+000
1,5604082E-001	-9,184709057350384E-004	3,000000000000000E+000
1,4008719E-001	-1,133807830329816E-003	3,000000000000000E+000
1,2400730E-001	-1,236425684421897E-003	3,000000000000000E+000
1,0800909E-001	-1,385275457677280E-003	3,000000000000000E+000
9,2066057E-002	-1,514509429667939E-003	3,000000000000000E+000
7,6015875E-002	-1,679484984372773E-003	3,000000000000000E+000
6,6169359E-002	-2,043509567859765E-003	4,000000000000000E+000
8,2162254E-002	-1,288042645346310E-003	4,000000000000000E+000
9,8133944E-002	-9,274283725567798E-004	4,000000000000000E+000
1,1414169E-001	-6,335872355217953E-004	4,000000000000000E+000
1,3012503E-001	-3,480698596494795E-004	4,000000000000000E+000
1,4614126E-001	-1,298767787695264E-004	4,000000000000000E+000
1,6209491E-001	9,422606423838782E-005	4,000000000000000E+000
1,7811327E-001	2,467955155814839E-004	4,000000000000000E+000
1,9411784E-001	4,379981145306109E-004	4,000000000000000E+000
2,1013089E-001	6,475814753533382E-004	4,000000000000000E+000
2,2610149E-001	9,007379298964259E-004	4,000000000000000E+000
2,4209863E-001	1,030405070600360E-003	4,000000000000000E+000
2,5812444E-001	1,257882823783467E-003	4,000000000000000E+000
2,7416927E-001	1,535474342121975E-003	4,000000000000000E+000
2,9010174E-001	1,876764572384844E-003	4,000000000000000E+000
3,0611265E-001	2,179928557813616E-003	4,000000000000000E+000
3,2210982E-001	2,600165258896867E-003	4,000000000000000E+000
3,3815894E-001	3,003760362776962E-003	4,000000000000000E+000
3,5410163E-001	3,374031241074705E-003	4,000000000000000E+000
3,5800254E-001	2,779787249706997E-003	4,000000000000000E+000
3,4198633E-001	1,825135838085211E-003	4,000000000000000E+000
3,2600406E-001	1,332525835500243E-003	4,000000000000000E+000
3,1003875E-001	8,973541955330996E-004	4,000000000000000E+000
2,9402465E-001	6,163878770798358E-004	4,000000000000000E+000
2,7801368E-001	3,381744954569707E-004	4,000000000000000E+000
2,6205474E-001	1,201936720547196E-004	4,000000000000000E+000
2,4601732E-001	-6,318325309469729E-005	4,000000000000000E+000
2,3002018E-001	-1,794186882930439E-004	4,000000000000000E+000
2,1401985E-001	-3,660379571678498E-004	4,000000000000000E+000
1,9803755E-001	-5,866981041709497E-004	4,000000000000000E+000
1,8203297E-001	-7,500290102716162E-004	4,000000000000000E+000
1,6599767E-001	-8,760737691941491E-004	4,000000000000000E+000
1,5002067E-001	-1,018987294810573E-003	4,000000000000000E+000
1,3405536E-001	-1,165305007075568E-003	4,000000000000000E+000
1,1799670E-001	-1,285469494733761E-003	4,000000000000000E+000
1,0203033E-001	-1,470685701540921E-003	4,000000000000000E+000
8,6025767E-002	-1,567892015910068E-003	4,000000000000000E+000
7,0009522E-002	-1,730376954633855E-003	4,000000000000000E+000
7,2135404E-002	-1,672696911791045E-003	4,000000000000000E+000
8,8147394E-002	-1,081430386286095E-003	4,000000000000000E+000
1,0412756E-001	-7,825991092431650E-004	4,000000000000000E+000
1,2015016E-001	-4,950980660312243E-004	4,000000000000000E+000
1,3614731E-001	-2,761710118108938E-004	4,000000000000000E+000
1,5212642E-001	-1,670087275400588E-005	4,000000000000000E+000
1,6816491E-001	1,064435397316391E-004	4,000000000000000E+000
1,8414402E-001	3,405501804241732E-004	4,000000000000000E+000
2,0010082E-001	5,503015119959154E-004	4,000000000000000E+000
2,1610647E-001	8,080856457834476E-004	4,000000000000000E+000
2,3214179E-001	9,243800126383858E-004	4,000000000000000E+000
2,4812730E-001	1,089903754634471E-003	4,000000000000000E+000
2,4933986E-001	2,057220948245231E-003	4,000000000000000E+000