File: fig_si_ecsa/TiO2/50.txt
EC-Lab ASCII FILE
Ewe/V	<I>/mA	cycle number
6,3929997E-002	-6,427713483572006E-002	1,000000000000000E+000
8,5076332E-002	-1,284740295861613E-003	1,000000000000000E+000
1,0110742E-001	1,898380023826164E-004	1,000000000000000E+000
1,1707485E-001	1,053725786025299E-003	1,000000000000000E+000
1,3311866E-001	1,644097879155506E-003	1,000000000000000E+000
1,4909673E-001	2,119545617258864E-003	1,000000000000000E+000
1,6506204E-001	2,507923636585474E-003	1,000000000000000E+000
1,8108037E-001	2,857216920448189E-003	1,000000000000000E+000
1,9706583E-001	3,180609298093875E-003	1,000000000000000E+000
2,1308634E-001	3,497826828606793E-003	1,000000000000000E+000
2,2905590E-001	3,800707069078473E-003	1,000000000000000E+000
2,4506259E-001	4,126417793385281E-003	1,000000000000000E+000
2,6108199E-001	4,481791211017286E-003	1,000000000000000E+000
2,7705792E-001	4,862423073063844E-003	1,000000000000000E+000
2,9308155E-001	5,288722380403996E-003	1,000000000000000E+000
3,0908510E-001	5,758367936828606E-003	1,000000000000000E+000
3,2505146E-001	6,257667614894071E-003	1,000000000000000E+000
3,4104857E-001	6,787904167140403E-003	1,000000000000000E+000
3,5705742E-001	7,332570622869156E-003	1,000000000000000E+000
3,5501215E-001	1,243180163025197E-003	1,000000000000000E+000
3,3897683E-001	-6,391221519900606E-005	1,000000000000000E+000
3,2300407E-001	-8,425048541135308E-004	1,000000000000000E+000
3,0698147E-001	-1,385664710040955E-003	1,000000000000000E+000
2,9100871E-001	-1,831173619090506E-003	1,000000000000000E+000
2,7498296E-001	-2,182650179949824E-003	1,000000000000000E+000
2,5897947E-001	-2,497278485154499E-003	1,000000000000000E+000
2,4298234E-001	-2,773211114496609E-003	1,000000000000000E+000
2,2696395E-001	-3,030416036280143E-003	1,000000000000000E+000
2,1095197E-001	-3,259403466977846E-003	1,000000000000000E+000
1,9499089E-001	-3,482399405078870E-003	1,000000000000000E+000
1,7895131E-001	-3,691442466838959E-003	1,000000000000000E+000
1,6300510E-001	-3,889618293720157E-003	1,000000000000000E+000
1,4697930E-001	-4,092865528946270E-003	1,000000000000000E+000
1,3102037E-001	-4,279595370462609E-003	1,000000000000000E+000
1,1499459E-001	-4,489780110210007E-003	1,000000000000000E+000
9,8985784E-002	-4,687293472670703E-003	1,000000000000000E+000
8,2981214E-002	-4,873725681439560E-003	1,000000000000000E+000
6,6991501E-002	-5,067630683899750E-003	1,000000000000000E+000
7,5173587E-002	-3,146977815365263E-005	2,000000000000000E+000
9,1198310E-002	7,923224703619020E-004	2,000000000000000E+000
1,0720925E-001	1,337216260961014E-003	2,000000000000000E+000
1,2316182E-001	1,784030263075286E-003	2,000000000000000E+000
1,3919185E-001	2,159740376252266E-003	2,000000000000000E+000
1,5517308E-001	2,473564145273284E-003	2,000000000000000E+000
1,7120418E-001	2,785774444621206E-003	2,000000000000000E+000
1,8717904E-001	3,073096199538369E-003	2,000000000000000E+000
2,0316023E-001	3,353300743684584E-003	2,000000000000000E+000
2,1915208E-001	3,644668814457769E-003	2,000000000000000E+000
2,3518635E-001	3,952755273429739E-003	2,000000000000000E+000
2,5118986E-001	4,251138626487877E-003	2,000000000000000E+000
2,6717108E-001	4,605674196581193E-003	2,000000000000000E+000
2,8318521E-001	5,000679682578071E-003	2,000000000000000E+000
2,9917812E-001	5,421002580583770E-003	2,000000000000000E+000
3,1514341E-001	5,885984301130539E-003	2,000000000000000E+000
3,3114371E-001	6,421843094964689E-003	2,000000000000000E+000
3,4714088E-001	6,935326293185259E-003	2,000000000000000E+000
3,6311695E-001	7,470771469343176E-003	2,000000000000000E+000
3,4897715E-001	5,667268908129920E-004	2,000000000000000E+000
3,3295771E-001	-4,592829391438305E-004	2,000000000000000E+000
3,1692666E-001	-1,114849364512338E-003	2,000000000000000E+000
3,0100587E-001	-1,618713574114534E-003	2,000000000000000E+000
2,8499180E-001	-2,005341702695454E-003	2,000000000000000E+000
2,6897445E-001	-2,352922953125228E-003	2,000000000000000E+000
2,5299007E-001	-2,646308138031982E-003	2,000000000000000E+000
2,3697703E-001	-2,925609649739463E-003	2,000000000000000E+000
2,2095442E-001	-3,166120747765585E-003	2,000000000000000E+000
2,0498168E-001	-3,379977060426923E-003	2,000000000000000E+000
1,8897286E-001	-3,600883247094708E-003	2,000000000000000E+000
1,7297043E-001	-3,817380715190666E-003	2,000000000000000E+000
1,5695524E-001	-4,011294749943765E-003	2,000000000000000E+000
1,4095704E-001	-4,212293251233252E-003	2,000000000000000E+000
1,2498006E-001	-4,409015963675392E-003	2,000000000000000E+000
1,0896914E-001	-4,601998198874441E-003	2,000000000000000E+000
9,3010187E-002	-4,776418329533447E-003	2,000000000000000E+000
7,7007748E-002	-4,983618956531329E-003	2,000000000000000E+000
6,5173253E-002	-9,228164764433812E-004	3,000000000000000E+000
8,1177823E-002	3,355596839406241E-004	3,000000000000000E+000
9,7164355E-002	9,582016035286278E-004	3,000000000000000E+000
1,1316998E-001	1,512864639254180E-003	3,000000000000000E+000
1,2919575E-001	1,946865790867180E-003	3,000000000000000E+000
1,4518653E-001	2,273988676582426E-003	3,000000000000000E+000
1,6115080E-001	2,551682921370632E-003	3,000000000000000E+000
1,7718400E-001	2,879292256693596E-003	3,000000000000000E+000
1,9322039E-001	3,166245355613592E-003	3,000000000000000E+000
2,0914219E-001	3,461903086847309E-003	3,000000000000000E+000
2,2517647E-001	3,711076312457519E-003	3,000000000000000E+000
2,4117044E-001	4,054816737657854E-003	3,000000000000000E+000
2,5716650E-001	4,353532669887923E-003	3,000000000000000E+000
2,7318382E-001	4,731341894108079E-003	3,000000000000000E+000
2,8920645E-001	5,104798205138664E-003	3,000000000000000E+000
3,0513948E-001	5,604651106318817E-003	3,000000000000000E+000
3,2114235E-001	6,075190073816988E-003	3,000000000000000E+000
3,3715433E-001	6,598932063045335E-003	3,000000000000000E+000
3,5317796E-001	7,066288005767616E-003	3,000000000000000E+000
3,5895094E-001	1,703115677325215E-003	3,000000000000000E+000
3,4296972E-001	6,233993659954229E-005	3,000000000000000E+000
3,2695672E-001	-7,446205371605986E-004	3,000000000000000E+000
3,1094572E-001	-1,365628423930801E-003	3,000000000000000E+000
2,9497936E-001	-1,817920314351792E-003	3,000000000000000E+000
2,7896100E-001	-2,196010211870680E-003	3,000000000000000E+000
2,6299781E-001	-2,474819322338184E-003	3,000000000000000E+000
2,4697311E-001	-2,788095684485990E-003	3,000000000000000E+000
2,3097491E-001	-3,066572291370695E-003	3,000000000000000E+000
2,1494704E-001	-3,277286746298257E-003	3,000000000000000E+000
1,9895306E-001	-3,476994754237236E-003	3,000000000000000E+000
1,8300682E-001	-3,708812808326904E-003	3,000000000000000E+000
1,6694604E-001	-3,911100518356164E-003	3,000000000000000E+000
1,5098284E-001	-4,126501861012211E-003	3,000000000000000E+000
1,3500904E-001	-4,284468411949779E-003	3,000000000000000E+000
1,1898752E-001	-4,511849306355620E-003	3,000000000000000E+000
1,0299673E-001	-4,670932234148481E-003	3,000000000000000E+000
8,6967774E-002	-4,899443066177692E-003	3,000000000000000E+000
7,1035326E-002	-5,050790918984475E-003	3,000000000000000E+000
7,1200825E-002	-3,867731704505986E-004	4,000000000000000E+000
8,7162964E-002	5,971046095207106E-004	4,000000000000000E+000
1,0319935E-001	1,166700877446508E-003	4,000000000000000E+000
1,1919437E-001	1,665184604159254E-003	4,000000000000000E+000
1,3522545E-001	2,010416323072507E-003	4,000000000000000E+000
1,5114090E-001	2,392617758636747E-003	4,000000000000000E+000
1,6716456E-001	2,694959664141704E-003	4,000000000000000E+000
1,8317975E-001	2,995252571054156E-003	4,000000000000000E+000
1,9916840E-001	3,239031849362719E-003	4,000000000000000E+000
2,1520691E-001	3,558200213471238E-003	4,000000000000000E+000
2,3120300E-001	3,867746025813801E-003	4,000000000000000E+000
2,4717571E-001	4,155232953861644E-003	4,000000000000000E+000
2,6317391E-001	4,463517201656948E-003	4,000000000000000E+000
2,7914986E-001	4,884567136388008E-003	4,000000000000000E+000
2,9516926E-001	5,278939708255673E-003	4,000000000000000E+000
3,1118551E-001	5,754701633931186E-003	4,000000000000000E+000
3,2712111E-001	6,216306578102765E-003	4,000000000000000E+000
3,4315008E-001	6,773883776784534E-003	4,000000000000000E+000
3,5911965E-001	7,280338750004209E-003	4,000000000000000E+000
3,5297433E-001	8,983401815183013E-004	4,000000000000000E+000
3,3692944E-001	-3,451963794608073E-004	4,000000000000000E+000
3,2092911E-001	-1,054467087871876E-003	4,000000000000000E+000
3,0495954E-001	-1,608435036022647E-003	4,000000000000000E+000
2,8897831E-001	-1,956745905772550E-003	4,000000000000000E+000
2,7295995E-001	-2,338917424721230E-003	4,000000000000000E+000
2,5695220E-001	-2,621380055239153E-003	4,000000000000000E+000
2,4095297E-001	-2,934321442808134E-003	4,000000000000000E+000
2,2496325E-001	-3,126785810309226E-003	4,000000000000000E+000
2,0898840E-001	-3,408365172718833E-003	4,000000000000000E+000
1,9298489E-001	-3,624589232963948E-003	4,000000000000000E+000
1,7695169E-001	-3,831517321790053E-003	4,000000000000000E+000
1,6095348E-001	-3,985819376895128E-003	4,000000000000000E+000
1,4500938E-001	-4,228168073799048E-003	4,000000000000000E+000
1,2898996E-001	-4,445020845095210E-003	4,000000000000000E+000
1,1298010E-001	-4,614318898448891E-003	4,000000000000000E+000
9,6982963E-002	-4,749537742706381E-003	4,000000000000000E+000
8,0987938E-002	-4,997516555401160E-003	4,000000000000000E+000
6,4996101E-002	-5,177398610410569E-003	4,000000000000000E+000
7,7171117E-002	5,647379587338111E-005	4,000000000000000E+000
9,3174614E-002	7,911004302311796E-004	4,000000000000000E+000
1,0919722E-001	1,334589127105174E-003	4,000000000000000E+000
1,2519860E-001	1,759835334673384E-003	4,000000000000000E+000
1,4116496E-001	2,129473176157463E-003	4,000000000000000E+000
1,5716104E-001	2,458623862670116E-003	4,000000000000000E+000
1,7316985E-001	2,781881880865603E-003	4,000000000000000E+000
1,8915853E-001	3,060921743276109E-003	4,000000000000000E+000
2,0518537E-001	3,334535188615623E-003	4,000000000000000E+000
2,2116870E-001	3,615981855141916E-003	4,000000000000000E+000
2,3719978E-001	3,930110569247844E-003	4,000000000000000E+000
2,4941625E-001	4,263083450496197E-003	4,000000000000000E+000