File: fig_4_nife_ceo2/Stability_CP/Ni50Fe50_stability_10mA_cm2_2hrs_02_CP_C01.txt
time/s	<Ewe/V>	I/mA
1,005239974605502E+001	4,6201798E-001	1,9076359E+000
4,825239878104185E+001	6,8397373E-001	2,0010448E+000
8,645239781602868E+001	6,8369681E-001	1,9985032E+000
1,246523968510155E+002	6,8374574E-001	2,0023158E+000
1,628523958860023E+002	6,8384421E-001	2,0054927E+000
2,010523949209892E+002	6,8400747E-001	2,0061283E+000
2,392523939559760E+002	6,8410766E-001	2,0023158E+000
2,774523929909628E+002	6,8436408E-001	2,0016801E+000
3,156523920259497E+002	6,8435442E-001	2,0016801E+000
3,538523910609365E+002	6,8452692E-001	1,9985032E+000
3,920523900959233E+002	6,8471837E-001	1,9991385E+000
4,302523891309102E+002	6,8478656E-001	2,0061283E+000
4,684523881658970E+002	6,8509561E-001	1,9985032E+000
5,066523872008838E+002	6,8501031E-001	2,0010448E+000
5,448523862358707E+002	6,8500233E-001	2,0004094E+000
5,830523852708575E+002	6,8523902E-001	2,0061283E+000
6,212523843058443E+002	6,8537366E-001	2,0048575E+000
6,594523833408311E+002	6,8539631E-001	1,9978676E+000
6,976523823758180E+002	6,8564659E-001	2,0035865E+000
7,358523814108048E+002	6,8561351E-001	2,0004094E+000
7,740523804457916E+002	6,8558782E-001	2,0099409E+000
8,122523794807785E+002	6,8575573E-001	1,9972322E+000
8,504523785157653E+002	6,8579203E-001	2,0023158E+000
8,886523775507521E+002	6,8585366E-001	2,0004094E+000
9,268523765857390E+002	6,8590367E-001	1,9959613E+000
9,650523756207258E+002	6,8595648E-001	2,0035865E+000
1,003252374655713E+003	6,8606216E-001	1,9934196E+000
1,041452373690699E+003	6,8613768E-001	1,9959613E+000
1,079652372725686E+003	6,8619132E-001	2,0112119E+000
1,117852371760673E+003	6,8620479E-001	2,0029511E+000
1,156052370795660E+003	6,8630749E-001	1,9978676E+000
1,194252369830647E+003	6,8624401E-001	2,0042222E+000
1,232452368865634E+003	6,8625891E-001	1,9965969E+000
1,270652367900620E+003	6,8626565E-001	2,0023158E+000
1,308852366935607E+003	6,8632036E-001	1,9997739E+000
1,347052365970594E+003	6,8653518E-001	2,0004094E+000
1,385252365005581E+003	6,8645626E-001	2,0061283E+000
1,423452364040568E+003	6,8644536E-001	2,0010448E+000
1,461652363075555E+003	6,8652922E-001	1,9997739E+000
1,499852362110541E+003	6,8646109E-001	2,0016801E+000
1,538052361145528E+003	6,8653995E-001	1,9972322E+000
1,576252360180515E+003	6,8663591E-001	1,9953259E+000
1,614452359215502E+003	6,8671882E-001	1,9972322E+000
1,652652358250489E+003	6,8665385E-001	1,9978676E+000
1,690852357285476E+003	6,8673217E-001	2,0042222E+000
1,729052356320462E+003	6,8664038E-001	1,9972322E+000
1,767252355355449E+003	6,8689674E-001	2,0073991E+000
1,805452354390436E+003	6,8683672E-001	2,0010448E+000
1,843652353425423E+003	6,8686974E-001	1,9997739E+000
1,881852352460410E+003	6,8690532E-001	2,0093055E+000
1,920052351495397E+003	6,8686485E-001	1,9997739E+000
1,958252350530383E+003	6,8685514E-001	2,0061283E+000
1,996452349565370E+003	6,8687153E-001	2,0010448E+000
2,034652348600357E+003	6,8687487E-001	2,0093055E+000
2,072852347635344E+003	6,8700111E-001	2,0080347E+000
2,111052346670331E+003	6,8699747E-001	2,0023158E+000
2,149252345705318E+003	6,8700773E-001	2,0112119E+000
2,187452344740304E+003	6,8682426E-001	2,0010448E+000
2,225652343775291E+003	6,8694627E-001	2,0016801E+000
2,263852342810278E+003	6,8700206E-001	1,9953259E+000
2,302052341845265E+003	6,8694985E-001	2,0073991E+000
2,340252340880252E+003	6,8709910E-001	1,9991385E+000
2,378452339915239E+003	6,8705326E-001	1,9997739E+000
2,416652338950225E+003	6,8694115E-001	2,0010448E+000
2,454852337985212E+003	6,8685007E-001	2,0054927E+000
2,493052337020199E+003	6,8699658E-001	1,9965969E+000
2,531252336055186E+003	6,8695998E-001	1,9972322E+000
2,569452335090173E+003	6,8703413E-001	1,9972322E+000
2,607652334125160E+003	6,8696237E-001	1,9934196E+000
2,645852333160146E+003	6,8695062E-001	1,9927841E+000
2,684052332195133E+003	6,8711877E-001	1,9978676E+000
2,722252331230120E+003	6,8689775E-001	1,9934196E+000
2,760452330265107E+003	6,8700641E-001	2,0010448E+000
2,798652329300094E+003	6,8702614E-001	2,0067637E+000
2,836852328335081E+003	6,8715376E-001	2,0048575E+000
2,875052327370067E+003	6,8708003E-001	2,0099409E+000
2,913252326405054E+003	6,8709642E-001	1,9978676E+000
2,951452325440041E+003	6,8697232E-001	2,0016801E+000
2,989652324475028E+003	6,8708366E-001	2,0048575E+000
3,027852323510015E+003	6,8706131E-001	2,0048575E+000
3,066052322545002E+003	6,8694514E-001	1,9978676E+000
3,104252321579988E+003	6,8691510E-001	2,0073991E+000
3,142452320614975E+003	6,8704903E-001	2,0029511E+000
3,180652319649962E+003	6,8715173E-001	1,9927841E+000
3,218852318684949E+003	6,8718499E-001	2,0035865E+000
3,257052317719936E+003	6,8707007E-001	2,0004094E+000
3,295252316754923E+003	6,8706536E-001	2,0016801E+000
3,333452315789909E+003	6,8696749E-001	2,0042222E+000
3,371652314824896E+003	6,8712562E-001	2,0086701E+000
3,409852313859883E+003	6,8716496E-001	2,0054927E+000
3,448052312894870E+003	6,8718761E-001	2,0029511E+000
3,486252311929857E+003	6,8706757E-001	1,9959613E+000
3,524452310964843E+003	6,8724096E-001	1,9985032E+000
3,562652309999830E+003	6,8716574E-001	2,0042222E+000
3,600852309034817E+003	6,8722564E-001	2,0016801E+000
3,639052308069804E+003	6,8718660E-001	2,0054927E+000
3,677252307104791E+003	6,8720448E-001	2,0010448E+000
3,715452306139778E+003	6,8707216E-001	1,9978676E+000
3,753652305174764E+003	6,8722790E-001	2,0016801E+000
3,791852304209751E+003	6,8717015E-001	1,9997739E+000
3,830052303244738E+003	6,8703347E-001	2,0099409E+000
3,868252302279725E+003	6,8712360E-001	2,0016801E+000
3,906452301314712E+003	6,8730521E-001	2,0010448E+000
3,944652300349699E+003	6,8700570E-001	2,0010448E+000
3,982852299384685E+003	6,8701202E-001	1,9991385E+000
4,021052298419672E+003	6,8718725E-001	1,9991385E+000
4,059252297454659E+003	6,8695569E-001	2,0023158E+000
4,097452296508753E+003	6,8691003E-001	2,0016801E+000
4,135652296046261E+003	6,8702984E-001	1,9985032E+000
4,173852295583754E+003	6,8711090E-001	2,0029511E+000
4,212052295121262E+003	6,8698090E-001	2,0029511E+000
4,250252294658771E+003	6,8707466E-001	2,0042222E+000
4,288452294196279E+003	6,8714064E-001	2,0010448E+000
4,326652293733787E+003	6,8729407E-001	2,0029511E+000
4,364852293271280E+003	6,8699700E-001	1,9940550E+000
4,403052292808788E+003	6,8723947E-001	2,0073991E+000
4,441252292346297E+003	6,8733829E-001	2,0035865E+000
4,479452291883805E+003	6,8705201E-001	1,9965969E+000
4,517652291421313E+003	6,8716818E-001	2,0035865E+000
4,555852290958806E+003	6,8710929E-001	2,0035865E+000
4,594052290496315E+003	6,8715465E-001	2,0010448E+000
4,632252290033823E+003	6,8728936E-001	1,9959613E+000
4,670452289571331E+003	6,8712914E-001	2,0048575E+000
4,708652289108839E+003	6,8719536E-001	2,0004094E+000
4,746852288646332E+003	6,8719363E-001	2,0029511E+000
4,785052288183841E+003	6,8729663E-001	2,0035865E+000
4,823252287721349E+003	6,8718749E-001	2,0048575E+000
4,861452287258857E+003	6,8720043E-001	1,9921488E+000
4,899652286796365E+003	6,8716872E-001	1,9985032E+000
4,937852286333859E+003	6,8725216E-001	2,0029511E+000
4,976052285871367E+003	6,8717527E-001	2,0073991E+000
5,014252285408875E+003	6,8715316E-001	1,9972322E+000
5,052452284946383E+003	6,8709177E-001	1,9991385E+000
5,090652284483891E+003	6,8714035E-001	1,9985032E+000
5,128852284021385E+003	6,8714631E-001	1,9972322E+000
5,167052283558893E+003	6,8705404E-001	2,0023158E+000
5,205252283096401E+003	6,8714225E-001	1,9972322E+000
5,243452282633909E+003	6,8705970E-001	2,0048575E+000
5,281652282171417E+003	6,8703872E-001	2,0042222E+000
5,319852281708911E+003	6,8711483E-001	1,9972322E+000
5,358052281246419E+003	6,8706161E-001	2,0016801E+000
5,396252280783927E+003	6,8712932E-001	2,0035865E+000
5,434452280321435E+003	6,8722069E-001	1,9985032E+000
5,472652279858943E+003	6,8706006E-001	2,0004094E+000
5,510852279396437E+003	6,8710655E-001	2,0054927E+000
5,549052278933945E+003	6,8709117E-001	2,0048575E+000
5,587252278471453E+003	6,8690562E-001	1,9985032E+000
5,625452278008961E+003	6,8696225E-001	1,9902425E+000
5,663652277546469E+003	6,8697816E-001	2,0010448E+000
5,701852277083963E+003	6,8699777E-001	2,0029511E+000
5,740052276621471E+003	6,8692225E-001	2,0042222E+000
5,778252276158979E+003	6,8697786E-001	1,9985032E+000
5,816452275696487E+003	6,8690115E-001	2,0016801E+000
5,854652275233995E+003	6,8695569E-001	2,0029511E+000
5,892852274771489E+003	6,8699533E-001	2,0042222E+000
5,931052274308997E+003	6,8697029E-001	2,0029511E+000
5,969252273846505E+003	6,8686509E-001	1,9985032E+000
6,007452273384013E+003	6,8686855E-001	2,0004094E+000
6,045652272921521E+003	6,8695241E-001	2,0048575E+000
6,083852272459015E+003	6,8681538E-001	1,9953259E+000
6,122052271996523E+003	6,8677896E-001	2,0010448E+000
6,160252271534031E+003	6,8684036E-001	2,0004094E+000
6,198452271071539E+003	6,8683130E-001	1,9921488E+000
6,236652270609047E+003	6,8678164E-001	2,0067637E+000
6,274852270146541E+003	6,8681318E-001	2,0105762E+000
6,313052269684049E+003	6,8675512E-001	2,0054927E+000
6,351252269221557E+003	6,8674612E-001	2,0016801E+000
6,389452268759065E+003	6,8670112E-001	2,0004094E+000
6,427652268296573E+003	6,8674386E-001	1,9959613E+000
6,465852267834067E+003	6,8678820E-001	1,9978676E+000
6,504052267371575E+003	6,8666106E-001	2,0035865E+000
6,542252266909083E+003	6,8670774E-001	2,0023158E+000
6,580452266446591E+003	6,8668687E-001	2,0016801E+000
6,618652265984099E+003	6,8676859E-001	1,9946904E+000
6,656852265521593E+003	6,8658227E-001	2,0010448E+000
6,695052265059101E+003	6,8662924E-001	2,0023158E+000
6,733252264596609E+003	6,8675572E-001	2,0004094E+000
6,771452264134117E+003	6,8674803E-001	2,0004094E+000
6,809652263671625E+003	6,8667156E-001	2,0042222E+000
6,847852263209119E+003	6,8658519E-001	2,0016801E+000
6,886052262746627E+003	6,8655705E-001	2,0029511E+000
6,924252262284135E+003	6,8659967E-001	2,0010448E+000
6,962452261821643E+003	6,8654382E-001	1,9953259E+000
7,000652261359151E+003	6,8646514E-001	2,0004094E+000
7,038852260896645E+003	6,8654734E-001	1,9985032E+000
7,077052260434153E+003	6,8651164E-001	1,9946904E+000
7,115252259971661E+003	6,8655199E-001	2,0048575E+000
7,153452259509169E+003	6,8655789E-001	1,9997739E+000
7,191652259046678E+003	6,8647456E-001	1,9953259E+000
7,210052258823896E+003	6,8643290E-001	2,0048575E+000