File: fig_si_ecsa/CeO2/10.txt
EC-Lab ASCII FILE
Nb header lines : 59

Cyclic Voltammetry

Run on channel : 1 (SN 10336)
User :
CE vs. WE compliance from -10 V to 10 V
Electrode connection : standard
Potential control : Ewe
Ewe ctrl range : min = -2,50 V, max = 2,50 V
Safety Limits :
	Do not start on E overload
Acquisition started on : 10/13/2024 13:58:28.596
Technique started on : 10/13/2024 13:58:28.596
Loaded Setting File :  C:\EC-lab data\Neethu\Methods\CV_ECSA.mps
Saved on :
	File : CV_ECSA_01_CV_C01.mpr
	Directory : C:\EC-lab data\Neethu\2024_10_13_Ni90Fe10_CeO2\CV_ECSA\
	Host : 10.54.33.65
Device : VMP3 (SN 0498)
Address : USB
EC-Lab for windows v11.52 (software)
Internet server v11.52 (firmware)
Command interpretor v11.50 (firmware)
Electrode material :
Initial state :
Electrolyte :
Comments :
Electrode surface area : 0,001 cm²
Characteristic mass : 0,001 g
Volume (V) : 0,001 cm³
Thickness (t) : 0,000 cm
Diameter (d) : 0,000 cm
Cell constant (k=t/A) : 0,000 cm-1
Cycle Definition : Charge/Discharge alternance
Ei (V)              0,064
vs.                 Ref
dE/dt               10,000
dE/dt unit          mV/s
E1 (V)              0,364
vs.                 Ref
Step percent        50
N                   10
E range min (V)     -2,500
E range max (V)     2,500
I Range             Auto
I Range min         Unset
I Range max         Unset
I Range init        Unset
Bandwidth           5
E2 (V)              0,064
vs.                 Ref
nc cycles           3
Reverse Scan        1
Ef (V)              0,070
vs.                 Eoc

Ewe/V	<I>/mA	cycle number
6,3479222E-002	-1,471490249969065E-003	1,000000000000000E+000
7,9440266E-002	6,956154327916143E-004	1,000000000000000E+000
9,5452257E-002	7,810626033191246E-004	1,000000000000000E+000
1,1138722E-001	8,398009599351001E-004	1,000000000000000E+000
1,2744761E-001	8,812053494222268E-004	1,000000000000000E+000
1,4342034E-001	9,300610328392845E-004	1,000000000000000E+000
1,5943447E-001	9,706273950642833E-004	1,000000000000000E+000
1,7542312E-001	1,005619169316356E-003	1,000000000000000E+000
1,9145736E-001	1,046771802605324E-003	1,000000000000000E+000
2,0746191E-001	1,089326472639289E-003	1,000000000000000E+000
2,2346437E-001	1,135006635094112E-003	1,000000000000000E+000
2,3941909E-001	1,189867345534293E-003	1,000000000000000E+000
2,5545865E-001	1,252218872347537E-003	1,000000000000000E+000
2,7144834E-001	1,329949115946263E-003	1,000000000000000E+000
2,8744444E-001	1,419152725348896E-003	1,000000000000000E+000
3,0342570E-001	1,514036516541466E-003	1,000000000000000E+000
3,1941754E-001	1,619888882420057E-003	1,000000000000000E+000
3,3538467E-001	1,740123069956696E-003	1,000000000000000E+000
3,5140857E-001	1,867490275967776E-003	1,000000000000000E+000
3,6068016E-001	6,020621629566590E-004	1,000000000000000E+000
3,4470421E-001	-2,445866548366708E-005	1,000000000000000E+000
3,2871449E-001	-2,610338852475306E-004	1,000000000000000E+000
3,1271100E-001	-4,043489138557236E-004	1,000000000000000E+000
2,9670647E-001	-5,118496040571090E-004	1,000000000000000E+000
2,8068700E-001	-5,880635177769999E-004	1,000000000000000E+000
2,6471961E-001	-6,365569395846383E-004	1,000000000000000E+000
2,4875003E-001	-6,729984334351998E-004	1,000000000000000E+000
2,3274867E-001	-7,051267982913301E-004	1,000000000000000E+000
2,1674094E-001	-7,317439064569997E-004	1,000000000000000E+000
2,0072575E-001	-7,593021499040474E-004	1,000000000000000E+000
1,8474133E-001	-7,845214112657478E-004	1,000000000000000E+000
1,6873041E-001	-8,117333135386528E-004	1,000000000000000E+000
1,5275766E-001	-8,350248983198909E-004	1,000000000000000E+000
1,3670683E-001	-8,634380772728810E-004	1,000000000000000E+000
1,2072838E-001	-8,994089642968620E-004	1,000000000000000E+000
1,0472911E-001	-9,327246047582290E-004	1,000000000000000E+000
8,8737272E-002	-9,663943608218175E-004	1,000000000000000E+000
7,2746508E-002	-1,000945491358395E-003	1,000000000000000E+000
6,8791777E-002	1,911698223485323E-004	2,000000000000000E+000
8,4782548E-002	4,914147311865218E-004	2,000000000000000E+000
1,0083272E-001	6,279183512055576E-004	2,000000000000000E+000
1,1681288E-001	7,175364120215535E-004	2,000000000000000E+000
1,3284504E-001	7,910246179865903E-004	2,000000000000000E+000
1,4881885E-001	8,495025790411833E-004	2,000000000000000E+000
1,6481173E-001	9,009707991262401E-004	2,000000000000000E+000
1,8081100E-001	9,458837385291582E-004	2,000000000000000E+000
1,9682936E-001	9,861078481966023E-004	2,000000000000000E+000
2,1281694E-001	1,027053586801262E-003	2,000000000000000E+000
2,2881727E-001	1,076712273196018E-003	2,000000000000000E+000
2,4482398E-001	1,129179492164880E-003	2,000000000000000E+000
2,6082975E-001	1,192565207492198E-003	2,000000000000000E+000
2,7680442E-001	1,258682074775502E-003	2,000000000000000E+000
2,9281431E-001	1,332432393004033E-003	2,000000000000000E+000
3,0885491E-001	1,426383201895216E-003	2,000000000000000E+000
3,2479054E-001	1,536738288619010E-003	2,000000000000000E+000
3,4077287E-001	1,650832059062347E-003	2,000000000000000E+000
3,5683787E-001	1,793227459495908E-003	2,000000000000000E+000
3,5471520E-001	1,669119215809187E-004	2,000000000000000E+000
3,3874243E-001	-1,987932223359251E-004	2,000000000000000E+000
3,2266679E-001	-3,975463586951031E-004	2,000000000000000E+000
3,0670998E-001	-5,251866702935711E-004	2,000000000000000E+000
2,9070327E-001	-6,096160536630884E-004	2,000000000000000E+000
2,7473053E-001	-6,695175512437276E-004	2,000000000000000E+000
2,5871748E-001	-7,160996203849739E-004	2,000000000000000E+000
2,4275854E-001	-7,634463545400684E-004	2,000000000000000E+000
2,2671790E-001	-7,940666612369206E-004	2,000000000000000E+000
2,1072002E-001	-8,162414496172346E-004	2,000000000000000E+000
1,9470984E-001	-8,389268314877669E-004	2,000000000000000E+000
1,7871693E-001	-8,671124443127270E-004	2,000000000000000E+000
1,6270921E-001	-8,969240822167476E-004	2,000000000000000E+000
1,4672586E-001	-9,239635170767251E-004	2,000000000000000E+000
1,3072234E-001	-9,529376097984939E-004	2,000000000000000E+000
1,1472096E-001	-9,817631560306676E-004	2,000000000000000E+000
9,8734424E-002	-1,023899999078519E-003	2,000000000000000E+000
8,2765937E-002	-1,059595882435576E-003	2,000000000000000E+000
6,6752888E-002	-1,099702410472133E-003	2,000000000000000E+000
7,4843742E-002	2,697979147283317E-004	3,000000000000000E+000
9,0840884E-002	5,094331998878720E-004	3,000000000000000E+000
1,0682742E-001	6,436769117836218E-004	3,000000000000000E+000
1,2284578E-001	7,420165516965373E-004	3,000000000000000E+000
1,3883972E-001	8,219971129653511E-004	3,000000000000000E+000
1,5479125E-001	8,876683835599888E-004	3,000000000000000E+000
1,7084675E-001	9,393443662567558E-004	3,000000000000000E+000
1,8682159E-001	9,811474988560397E-004	3,000000000000000E+000
2,0282193E-001	1,032553011841459E-003	3,000000000000000E+000
2,1879466E-001	1,084943039367556E-003	3,000000000000000E+000
2,3486075E-001	1,133005619420953E-003	3,000000000000000E+000
2,5081542E-001	1,186244673320926E-003	3,000000000000000E+000
2,6677650E-001	1,256295835143339E-003	3,000000000000000E+000
2,8283626E-001	1,328327612740130E-003	3,000000000000000E+000
2,9882807E-001	1,407027631271533E-003	3,000000000000000E+000
3,1480718E-001	1,495267468945476E-003	3,000000000000000E+000
3,3079585E-001	1,602957111673377E-003	3,000000000000000E+000
3,4679934E-001	1,722365788602333E-003	3,000000000000000E+000
3,6283046E-001	1,861071328608833E-003	3,000000000000000E+000
3,4868973E-001	-2,411940945016254E-005	3,000000000000000E+000
3,3272550E-001	-3,089571264627856E-004	3,000000000000000E+000
3,1669545E-001	-4,787992048241674E-004	3,000000000000000E+000
3,0073649E-001	-6,002733059210221E-004	3,000000000000000E+000
2,8475103E-001	-6,849874241904932E-004	3,000000000000000E+000
2,6870081E-001	-7,485784720942029E-004	3,000000000000000E+000
2,5272495E-001	-7,936030114824122E-004	3,000000000000000E+000
2,3675431E-001	-8,280303176164735E-004	3,000000000000000E+000
2,2070201E-001	-8,596428483374288E-004	3,000000000000000E+000
2,0471971E-001	-8,879564080012214E-004	3,000000000000000E+000
1,8872258E-001	-9,182458033373435E-004	3,000000000000000E+000
1,7273605E-001	-9,434489616574476E-004	3,000000000000000E+000
1,5674739E-001	-9,762218577196585E-004	3,000000000000000E+000
1,4071101E-001	-1,004981933672550E-003	3,000000000000000E+000
1,2471811E-001	-1,035062571544483E-003	3,000000000000000E+000
1,0874644E-001	-1,068465380942345E-003	3,000000000000000E+000
9,2752472E-002	-1,110296892066903E-003	3,000000000000000E+000
7,6726697E-002	-1,148526467322546E-003	3,000000000000000E+000
6,4863570E-002	-1,926085994394147E-004	4,000000000000000E+000
8,0853283E-002	3,410698926894955E-004	4,000000000000000E+000
9,6811168E-002	5,329445110099316E-004	4,000000000000000E+000
1,1280724E-001	6,756658999451980E-004	4,000000000000000E+000
1,2883303E-001	7,844246951275724E-004	4,000000000000000E+000
1,4484502E-001	8,640957754256270E-004	4,000000000000000E+000
1,6078380E-001	9,237175120991500E-004	4,000000000000000E+000
1,7682977E-001	9,877665752019010E-004	4,000000000000000E+000
1,9283645E-001	1,040592185880221E-003	4,000000000000000E+000
2,0883146E-001	1,093949981117878E-003	4,000000000000000E+000
2,2481056E-001	1,135529949856901E-003	4,000000000000000E+000
2,4085650E-001	1,200985823406543E-003	4,000000000000000E+000
2,5681651E-001	1,259992708111425E-003	4,000000000000000E+000
2,7281576E-001	1,325556678138030E-003	4,000000000000000E+000
2,8878745E-001	1,395993149883534E-003	4,000000000000000E+000
3,0479306E-001	1,489019445014297E-003	4,000000000000000E+000
3,2078707E-001	1,588867340211034E-003	4,000000000000000E+000
3,3679795E-001	1,700698324485633E-003	4,000000000000000E+000
3,5278130E-001	1,805766636270741E-003	4,000000000000000E+000
3,5866991E-001	3,887667674933749E-004	4,000000000000000E+000
3,4271628E-001	-1,555335506510068E-004	4,000000000000000E+000
3,2670215E-001	-3,859603923475380E-004	4,000000000000000E+000
3,1069335E-001	-5,573104296032680E-004	4,000000000000000E+000
2,9469410E-001	-6,630945883646065E-004	4,000000000000000E+000
2,7870226E-001	-7,507572854929432E-004	4,000000000000000E+000
2,6269871E-001	-8,054755931812853E-004	4,000000000000000E+000
2,4679072E-001	-8,581101216501956E-004	4,000000000000000E+000
2,3072673E-001	-8,981570413366356E-004	4,000000000000000E+000
2,1468082E-001	-9,313153714174422E-004	4,000000000000000E+000
1,9871974E-001	-9,518779917454083E-004	4,000000000000000E+000
1,8274593E-001	-9,918099986626454E-004	4,000000000000000E+000
1,6664909E-001	-1,014144362637092E-003	4,000000000000000E+000
1,5068057E-001	-1,050666421414692E-003	4,000000000000000E+000
1,3474073E-001	-1,071322276671983E-003	4,000000000000000E+000
1,1869479E-001	-1,114508602902920E-003	4,000000000000000E+000
1,0272628E-001	-1,146569940492212E-003	4,000000000000000E+000
8,6682014E-002	-1,188465658800566E-003	4,000000000000000E+000
7,0736252E-002	-1,227847402468021E-003	4,000000000000000E+000
7,0822179E-002	5,052968893753333E-005	4,000000000000000E+000
8,6786166E-002	3,955134108532682E-004	4,000000000000000E+000
1,0284616E-001	5,749921630114029E-004	4,000000000000000E+000
1,1884754E-001	7,176083507618863E-004	4,000000000000000E+000
1,3453706E-001	8,256628073771317E-004	4,000000000000000E+000
1,3475987E-001	1,070024562068284E-003	4,000000000000000E+000