File: fig_si_ecsa/CeO2/100.txt
EC-Lab ASCII FILE
Nb header lines : 59

Cyclic Voltammetry

Run on channel : 1 (SN 10336)
User :
CE vs. WE compliance from -10 V to 10 V
Electrode connection : standard
Potential control : Ewe
Ewe ctrl range : min = -2,50 V, max = 2,50 V
Safety Limits :
	Do not start on E overload
Acquisition started on : 10/13/2024 13:58:28.596
Technique started on : 10/13/2024 14:05:29.152
Loaded Setting File :  C:\EC-lab data\Neethu\Methods\CV_ECSA.mps
Saved on :
	File : CV_ECSA_04_CV_C01.mpr
	Directory : C:\EC-lab data\Neethu\2024_10_13_Ni90Fe10_CeO2\CV_ECSA\
	Host : 10.54.33.65
Device : VMP3 (SN 0498)
Address : USB
EC-Lab for windows v11.52 (software)
Internet server v11.52 (firmware)
Command interpretor v11.50 (firmware)
Electrode material :
Initial state :
Electrolyte :
Comments :
Electrode surface area : 0,001 cm²
Characteristic mass : 0,001 g
Volume (V) : 0,001 cm³
Thickness (t) : 0,000 cm
Diameter (d) : 0,000 cm
Cell constant (k=t/A) : 0,000 cm-1
Cycle Definition : Charge/Discharge alternance
Ei (V)              0,064
vs.                 Ref
dE/dt               100,000
dE/dt unit          mV/s
E1 (V)              0,364
vs.                 Ref
Step percent        50
N                   10
E range min (V)     -2,500
E range max (V)     2,500
I Range             Auto
I Range min         Unset
I Range max         Unset
I Range init        Unset
Bandwidth           5
E2 (V)              0,064
vs.                 Ref
nc cycles           3
Reverse Scan        1
Ef (V)              0,070
vs.                 Eoc

Ewe/V	<I>/mA	cycle number
6,5675117E-002	1,654355973005295E-002	1,000000000000000E+000
8,1733763E-002	2,230746858509120E-003	1,000000000000000E+000
1,0074151E-001	3,843771261421762E-003	1,000000000000000E+000
1,1667075E-001	4,383414377015366E-003	1,000000000000000E+000
1,3273472E-001	4,903241133433781E-003	1,000000000000000E+000
1,4870110E-001	5,262634389914145E-003	1,000000000000000E+000
1,6467807E-001	5,594097568165228E-003	1,000000000000000E+000
1,8070066E-001	6,069796309020603E-003	1,000000000000000E+000
1,9670311E-001	6,253535454662743E-003	1,000000000000000E+000
2,1273634E-001	6,659141613555339E-003	1,000000000000000E+000
2,2868574E-001	6,986505060518122E-003	1,000000000000000E+000
2,4472849E-001	7,386034618118889E-003	1,000000000000000E+000
2,6069272E-001	7,695173592866131E-003	1,000000000000000E+000
2,7669200E-001	8,140189848038298E-003	1,000000000000000E+000
2,9272097E-001	8,616959951016051E-003	1,000000000000000E+000
3,0868414E-001	9,221981328866848E-003	1,000000000000000E+000
3,2468981E-001	9,687344616395456E-003	1,000000000000000E+000
3,4066570E-001	1,022048009973437E-002	1,000000000000000E+000
3,5671800E-001	1,081488711416673E-002	1,000000000000000E+000
3,4983644E-001	-1,324173283238549E-003	1,000000000000000E+000
3,3078206E-001	-3,082155578037309E-003	1,000000000000000E+000
3,1477860E-001	-4,083443466596570E-003	1,000000000000000E+000
2,9883868E-001	-4,563288397346495E-003	1,000000000000000E+000
2,8281400E-001	-5,046710108419783E-003	1,000000000000000E+000
2,6681790E-001	-5,390689255566223E-003	1,000000000000000E+000
2,5081545E-001	-5,676370266883182E-003	1,000000000000000E+000
2,3486184E-001	-5,824575389851816E-003	1,000000000000000E+000
2,1882331E-001	-6,172767778075954E-003	1,000000000000000E+000
2,0283785E-001	-6,386564757526178E-003	1,000000000000000E+000
1,8680041E-001	-6,548157239497684E-003	1,000000000000000E+000
1,7084885E-001	-6,633374387294879E-003	1,000000000000000E+000
1,5483156E-001	-6,888296229590210E-003	1,000000000000000E+000
1,3882594E-001	-7,089069870643352E-003	1,000000000000000E+000
1,2280333E-001	-7,307868277873941E-003	1,000000000000000E+000
1,0686243E-001	-7,427723826872845E-003	1,000000000000000E+000
9,0856798E-002	-7,714562207790210E-003	1,000000000000000E+000
7,4851170E-002	-7,959976924111142E-003	1,000000000000000E+000
6,5248646E-002	-7,806433847513767E-004	2,000000000000000E+000
8,0915868E-002	2,062545717611414E-003	2,000000000000000E+000
9,6891798E-002	2,904596983070310E-003	2,000000000000000E+000
1,1289424E-001	3,762004273287142E-003	2,000000000000000E+000
1,2889455E-001	4,278265519436310E-003	2,000000000000000E+000
1,4492881E-001	4,621752925838038E-003	2,000000000000000E+000
1,6091219E-001	4,920756444334993E-003	2,000000000000000E+000
1,7687644E-001	5,517253814307205E-003	2,000000000000000E+000
1,9291495E-001	5,828910996367816E-003	2,000000000000000E+000
2,0892166E-001	6,080152930129195E-003	2,000000000000000E+000
2,2490710E-001	6,391447412574483E-003	2,000000000000000E+000
2,4090742E-001	6,950976060276531E-003	2,000000000000000E+000
2,5690880E-001	7,208007499381608E-003	2,000000000000000E+000
2,7291867E-001	7,725986285044596E-003	2,000000000000000E+000
2,8891051E-001	8,058709995465436E-003	2,000000000000000E+000
3,0486625E-001	8,738992180345462E-003	2,000000000000000E+000
3,2087296E-001	9,217559331672355E-003	2,000000000000000E+000
3,3688390E-001	9,784197354747476E-003	2,000000000000000E+000
3,5290644E-001	1,030919590104737E-002	2,000000000000000E+000
3,5885343E-001	6,052830247524673E-004	2,000000000000000E+000
3,4271413E-001	-2,531599008256705E-003	2,000000000000000E+000
3,2670218E-001	-3,542723072314388E-003	2,000000000000000E+000
3,1073183E-001	-4,411686341634108E-003	2,000000000000000E+000
2,9473227E-001	-4,831183740558721E-003	2,000000000000000E+000
2,7868527E-001	-5,247421827435664E-003	2,000000000000000E+000
2,6272419E-001	-5,491446263881152E-003	2,000000000000000E+000
2,4671537E-001	-5,886269873169800E-003	2,000000000000000E+000
2,3076071E-001	-6,066860621811203E-003	2,000000000000000E+000
2,1475402E-001	-6,183616064340106E-003	2,000000000000000E+000
1,9875687E-001	-6,331854309488932E-003	2,000000000000000E+000
1,8273640E-001	-6,676252078856706E-003	2,000000000000000E+000
1,6672440E-001	-6,775695354412557E-003	2,000000000000000E+000
1,5074635E-001	-7,034787253360250E-003	2,000000000000000E+000
1,3476618E-001	-7,088187819641059E-003	2,000000000000000E+000
1,1873510E-001	-7,489913384132602E-003	2,000000000000000E+000
1,0269766E-001	-7,498462610480289E-003	2,000000000000000E+000
8,6722791E-002	-7,803341503151567E-003	2,000000000000000E+000
7,0762776E-002	-7,916376048847765E-003	2,000000000000000E+000
6,9026209E-002	5,625381779484333E-004	3,000000000000000E+000
8,4898181E-002	2,341089447428307E-003	3,000000000000000E+000
1,0094518E-001	3,105609268459385E-003	3,000000000000000E+000
1,1691368E-001	3,794822425738351E-003	3,000000000000000E+000
1,3291399E-001	4,309698800676026E-003	3,000000000000000E+000
1,4893129E-001	4,769948422714776E-003	3,000000000000000E+000
1,6490191E-001	5,043253816337627E-003	3,000000000000000E+000
1,8092452E-001	5,445611309066102E-003	3,000000000000000E+000
1,9687814E-001	5,801089017445020E-003	3,000000000000000E+000
2,1289968E-001	6,228224511788658E-003	3,000000000000000E+000
2,2888623E-001	6,481623929479013E-003	3,000000000000000E+000
2,4494490E-001	6,971554476573771E-003	3,000000000000000E+000
2,6094097E-001	7,301255743287688E-003	3,000000000000000E+000
2,7689251E-001	7,839059343192893E-003	3,000000000000000E+000
2,9292142E-001	8,236261157435393E-003	3,000000000000000E+000
3,0890799E-001	8,884922728207637E-003	3,000000000000000E+000
3,2488284E-001	9,361130535479767E-003	3,000000000000000E+000
3,4085238E-001	9,985868945982995E-003	3,000000000000000E+000
3,5690686E-001	1,052065462944384E-002	3,000000000000000E+000
3,5473850E-001	-7,375358821314451E-004	3,000000000000000E+000
3,3873716E-001	-2,915765341741556E-003	3,000000000000000E+000
3,2268271E-001	-3,885016580372588E-003	3,000000000000000E+000
3,0670255E-001	-4,515552353647430E-003	3,000000000000000E+000
2,9071704E-001	-5,030229728921129E-003	3,000000000000000E+000
2,7472526E-001	-5,371888120053965E-003	3,000000000000000E+000
2,5873768E-001	-5,626505606616962E-003	3,000000000000000E+000
2,4275327E-001	-5,954091967497424E-003	3,000000000000000E+000
2,2674339E-001	-6,210916575784882E-003	3,000000000000000E+000
2,1071441E-001	-6,416161004987452E-003	3,000000000000000E+000
1,9467483E-001	-6,493708307971233E-003	3,000000000000000E+000
1,7867026E-001	-6,780440493457683E-003	3,000000000000000E+000
1,6271767E-001	-6,941451026553608E-003	3,000000000000000E+000
1,4673753E-001	-7,166364331270499E-003	3,000000000000000E+000
1,3070856E-001	-7,303736890915208E-003	3,000000000000000E+000
1,1470930E-001	-7,543709696215539E-003	3,000000000000000E+000
9,8720647E-002	-7,686481636887427E-003	3,000000000000000E+000
8,2763806E-002	-7,953525647786161E-003	3,000000000000000E+000
6,6744395E-002	-8,146151827531783E-003	3,000000000000000E+000
7,2927907E-002	1,233555033296509E-003	4,000000000000000E+000
8,8936716E-002	2,520506697086002E-003	4,000000000000000E+000
1,0492007E-001	3,297469629210865E-003	4,000000000000000E+000
1,2089173E-001	3,887909418659147E-003	4,000000000000000E+000
1,3693875E-001	4,452010742372517E-003	4,000000000000000E+000
1,5290193E-001	4,811568460960799E-003	4,000000000000000E+000
1,6890970E-001	5,210811735499502E-003	4,000000000000000E+000
1,8489303E-001	5,537442798312378E-003	4,000000000000000E+000
2,0087956E-001	5,927675425886682E-003	4,000000000000000E+000
2,1689899E-001	6,315744783124605E-003	4,000000000000000E+000
2,3291206E-001	6,620259048860256E-003	4,000000000000000E+000
2,4895690E-001	7,095355400653924E-003	4,000000000000000E+000
2,6492965E-001	7,429265566719939E-003	4,000000000000000E+000
2,8091300E-001	7,983645245581636E-003	4,000000000000000E+000
2,9691011E-001	8,381459330040447E-003	4,000000000000000E+000
3,1285849E-001	9,122287772091474E-003	4,000000000000000E+000
3,2888320E-001	9,514037644193091E-003	4,000000000000000E+000
3,4486446E-001	1,009961841353088E-002	4,000000000000000E+000
3,6086795E-001	1,071085249309872E-002	4,000000000000000E+000
3,5071591E-001	-1,572334421931970E-003	4,000000000000000E+000
3,3471873E-001	-3,129627569150095E-003	4,000000000000000E+000
3,1871209E-001	-4,116115250831678E-003	4,000000000000000E+000
3,0272657E-001	-4,677915770621918E-003	4,000000000000000E+000
2,8673899E-001	-5,183534773095730E-003	4,000000000000000E+000
2,7076098E-001	-5,466814592687616E-003	4,000000000000000E+000
2,5472987E-001	-5,740089871121894E-003	4,000000000000000E+000
2,3872426E-001	-5,980272904303613E-003	4,000000000000000E+000
2,2273135E-001	-6,233460080693462E-003	4,000000000000000E+000
2,0674695E-001	-6,420033894553624E-003	4,000000000000000E+000
1,9070736E-001	-6,521986684674609E-003	4,000000000000000E+000
1,7471130E-001	-6,780505609640396E-003	4,000000000000000E+000
1,5873328E-001	-6,998596451012390E-003	4,000000000000000E+000
1,4274673E-001	-7,227236936564095E-003	4,000000000000000E+000
1,2674852E-001	-7,325435158741594E-003	4,000000000000000E+000
1,1072487E-001	-7,545704652228688E-003	4,000000000000000E+000
9,4758481E-002	-7,758656493226393E-003	4,000000000000000E+000
7,8778319E-002	-8,002003838353394E-003	4,000000000000000E+000
6,3326463E-002	-8,277660701423883E-003	4,000000000000000E+000
7,6942042E-002	1,686357178692161E-003	4,000000000000000E+000
9,2914782E-002	2,732275210291846E-003	4,000000000000000E+000
1,0894905E-001	3,488203434244497E-003	4,000000000000000E+000
1,2493666E-001	3,946040251321399E-003	4,000000000000000E+000
1,3462621E-001	4,321211017668247E-003	4,000000000000000E+000