File: fig_si_ecsa/CeO2/20.txt
EC-Lab ASCII FILE
Nb header lines : 59

Cyclic Voltammetry

Run on channel : 1 (SN 10336)
User :
CE vs. WE compliance from -10 V to 10 V
Electrode connection : standard
Potential control : Ewe
Ewe ctrl range : min = -2,50 V, max = 2,50 V
Safety Limits :
	Do not start on E overload
Acquisition started on : 10/13/2024 13:58:28.596
Technique started on : 10/13/2024 14:02:35.906
Loaded Setting File :  C:\EC-lab data\Neethu\Methods\CV_ECSA.mps
Saved on :
	File : CV_ECSA_02_CV_C01.mpr
	Directory : C:\EC-lab data\Neethu\2024_10_13_Ni90Fe10_CeO2\CV_ECSA\
	Host : 10.54.33.65
Device : VMP3 (SN 0498)
Address : USB
EC-Lab for windows v11.52 (software)
Internet server v11.52 (firmware)
Command interpretor v11.50 (firmware)
Electrode material :
Initial state :
Electrolyte :
Comments :
Electrode surface area : 0,001 cm²
Characteristic mass : 0,001 g
Volume (V) : 0,001 cm³
Thickness (t) : 0,000 cm
Diameter (d) : 0,000 cm
Cell constant (k=t/A) : 0,000 cm-1
Cycle Definition : Charge/Discharge alternance
Ei (V)              0,064
vs.                 Ref
dE/dt               20,000
dE/dt unit          mV/s
E1 (V)              0,364
vs.                 Ref
Step percent        50
N                   10
E range min (V)     -2,500
E range max (V)     2,500
I Range             Auto
I Range min         Unset
I Range max         Unset
I Range init        Unset
Bandwidth           5
E2 (V)              0,064
vs.                 Ref
nc cycles           3
Reverse Scan        1
Ef (V)              0,070
vs.                 Eoc

Ewe/V	<I>/mA	cycle number
6,3250087E-002	9,265850298106670E-003	1,000000000000000E+000
7,9325698E-002	-4,815099438373084E-004	1,000000000000000E+000
9,5291011E-002	1,215023847809906E-004	1,000000000000000E+000
1,1127983E-001	3,747916510382665E-004	1,000000000000000E+000
1,2728953E-001	6,113240209978631E-004	1,000000000000000E+000
1,4329410E-001	6,693105164298761E-004	1,000000000000000E+000
1,5927957E-001	7,680259065333886E-004	1,000000000000000E+000
1,7523852E-001	8,839400552292133E-004	1,000000000000000E+000
1,9126323E-001	9,849749919828895E-004	1,000000000000000E+000
2,0730281E-001	1,046663653343983E-003	1,000000000000000E+000
2,2326814E-001	1,149075261583601E-003	1,000000000000000E+000
2,3926422E-001	1,209119117691919E-003	1,000000000000000E+000
2,5525498E-001	1,379889542860192E-003	1,000000000000000E+000
2,7129668E-001	1,525467455908092E-003	1,000000000000000E+000
2,8725561E-001	1,604823525414963E-003	1,000000000000000E+000
3,0325595E-001	1,751120763388934E-003	1,000000000000000E+000
3,1926793E-001	1,885869494128865E-003	1,000000000000000E+000
3,3526403E-001	2,082978911655826E-003	1,000000000000000E+000
3,5130250E-001	2,285573590025125E-003	1,000000000000000E+000
3,6074913E-001	1,598851834117978E-003	1,000000000000000E+000
3,4477213E-001	6,512098409003817E-004	1,000000000000000E+000
3,2871559E-001	1,496511937165010E-004	1,000000000000000E+000
3,1275982E-001	-1,399690951765714E-004	1,000000000000000E+000
2,9673296E-001	-2,118708992350513E-004	1,000000000000000E+000
2,8075919E-001	-3,511234962035002E-004	1,000000000000000E+000
2,6475674E-001	-4,751698419972351E-004	1,000000000000000E+000
2,4880202E-001	-5,412178616771368E-004	1,000000000000000E+000
2,3276667E-001	-5,873701349914714E-004	1,000000000000000E+000
2,1674727E-001	-7,139101255267677E-004	1,000000000000000E+000
2,0076391E-001	-8,053893226908143E-004	1,000000000000000E+000
1,8474773E-001	-8,355718891850609E-004	1,000000000000000E+000
1,6879511E-001	-9,683252337161470E-004	1,000000000000000E+000
1,5277994E-001	-9,448187439139236E-004	1,000000000000000E+000
1,3675839E-001	-1,053703170593206E-003	1,000000000000000E+000
1,2075276E-001	-1,093471081663591E-003	1,000000000000000E+000
1,0477261E-001	-1,227055588203628E-003	1,000000000000000E+000
8,8776521E-002	-1,280558960759119E-003	1,000000000000000E+000
7,2777271E-002	-1,368931516497947E-003	1,000000000000000E+000
6,8779044E-002	-8,594173734174399E-004	2,000000000000000E+000
8,4784672E-002	-2,322028687907966E-004	2,000000000000000E+000
1,0082000E-001	2,622087652492098E-005	2,000000000000000E+000
1,1678425E-001	2,490916329204798E-004	2,000000000000000E+000
1,3279305E-001	3,986693598023905E-004	2,000000000000000E+000
1,4877005E-001	6,061481675277277E-004	2,000000000000000E+000
1,6476825E-001	6,861054826509255E-004	2,000000000000000E+000
1,8080041E-001	7,704369891143870E-004	2,000000000000000E+000
1,9680071E-001	8,652734351012811E-004	2,000000000000000E+000
2,1277767E-001	9,366947013370874E-004	2,000000000000000E+000
2,2876422E-001	1,034682057386951E-003	2,000000000000000E+000
2,4478999E-001	1,212081398854801E-003	2,000000000000000E+000
2,6075354E-001	1,356726665665331E-003	2,000000000000000E+000
2,7675882E-001	1,496755690503185E-003	2,000000000000000E+000
2,9276660E-001	1,634873488645931E-003	2,000000000000000E+000
3,0875102E-001	1,793576798796170E-003	2,000000000000000E+000
3,2475662E-001	1,956223807311565E-003	2,000000000000000E+000
3,4076542E-001	2,109644946392141E-003	2,000000000000000E+000
3,5676894E-001	2,376156647827610E-003	2,000000000000000E+000
3,5474914E-001	9,703730244028652E-004	2,000000000000000E+000
3,3877110E-001	3,649114148376797E-004	2,000000000000000E+000
3,2275909E-001	-1,647392441418146E-005	2,000000000000000E+000
3,0676088E-001	-1,650377627918764E-004	2,000000000000000E+000
2,9071921E-001	-3,506047474999214E-004	2,000000000000000E+000
2,7472630E-001	-4,710875389011774E-004	2,000000000000000E+000
2,5880980E-001	-5,724616315757154E-004	2,000000000000000E+000
2,4279779E-001	-6,981261306304096E-004	2,000000000000000E+000
2,2673169E-001	-6,901501538036578E-004	2,000000000000000E+000
2,1077465E-001	-7,720810187956989E-004	2,000000000000000E+000
1,9479153E-001	-8,636411087671290E-004	2,000000000000000E+000
1,7872755E-001	-9,335769305178279E-004	2,000000000000000E+000
1,6272724E-001	-9,742880555744758E-004	2,000000000000000E+000
1,4677994E-001	-1,064320077249350E-003	2,000000000000000E+000
1,3072871E-001	-1,106154275981275E-003	2,000000000000000E+000
1,1474749E-001	-1,175049548986923E-003	2,000000000000000E+000
9,8778978E-002	-1,240708424322497E-003	2,000000000000000E+000
8,2792453E-002	-1,364094564910036E-003	2,000000000000000E+000
6,6782586E-002	-1,429570875235125E-003	2,000000000000000E+000
7,4818283E-002	-5,887377629918466E-004	3,000000000000000E+000
9,0820722E-002	-1,601861256403940E-004	3,000000000000000E+000
1,0679241E-001	1,480654076304851E-004	3,000000000000000E+000
1,2271316E-001	3,173178423889173E-004	3,000000000000000E+000
1,3879728E-001	4,657077181743942E-004	3,000000000000000E+000
1,5478913E-001	5,825679838919861E-004	3,000000000000000E+000
1,7077036E-001	7,125447360328517E-004	3,000000000000000E+000
1,8678130E-001	8,285001681374339E-004	3,000000000000000E+000
2,0281236E-001	9,239850193462516E-004	3,000000000000000E+000
2,1880102E-001	1,055718485459958E-003	3,000000000000000E+000
2,3480454E-001	1,111718267700923E-003	3,000000000000000E+000
2,5079849E-001	1,238768254922806E-003	3,000000000000000E+000
2,6678818E-001	1,423418468288279E-003	3,000000000000000E+000
2,8275457E-001	1,561769200268126E-003	3,000000000000000E+000
2,9877505E-001	1,722644762914434E-003	3,000000000000000E+000
3,1479344E-001	1,850602401932345E-003	3,000000000000000E+000
3,3078840E-001	2,050968847605097E-003	3,000000000000000E+000
3,4674948E-001	2,210550523159327E-003	3,000000000000000E+000
3,6311370E-001	3,291550525722820E-003	3,000000000000000E+000
3,4870461E-001	-1,226609331486841E-004	3,000000000000000E+000
3,3270425E-001	-6,309864247332044E-004	3,000000000000000E+000
3,1669438E-001	-9,579208231621644E-004	3,000000000000000E+000
3,0070683E-001	-1,182352172084693E-003	3,000000000000000E+000
2,8468314E-001	-1,338110162409803E-003	3,000000000000000E+000
2,6872844E-001	-1,462290812385077E-003	3,000000000000000E+000
2,5267187E-001	-1,556793750852291E-003	3,000000000000000E+000
2,3673628E-001	-1,651687479116610E-003	3,000000000000000E+000
2,2071156E-001	-1,720810585269378E-003	3,000000000000000E+000
2,0473033E-001	-1,790041296906707E-003	3,000000000000000E+000
1,8873532E-001	-1,842186073998975E-003	3,000000000000000E+000
1,7275409E-001	-1,907977121138372E-003	3,000000000000000E+000
1,5672831E-001	-1,967787017983252E-003	3,000000000000000E+000
1,4074494E-001	-2,023124179416941E-003	3,000000000000000E+000
1,2475206E-001	-2,089294329279155E-003	3,000000000000000E+000
1,0873158E-001	-2,155806428668774E-003	3,000000000000000E+000
9,2759907E-002	-2,221216523375244E-003	3,000000000000000E+000
7,6733060E-002	-2,276796151245771E-003	3,000000000000000E+000
6,4808406E-002	-5,054849901726891E-004	4,000000000000000E+000
8,0853283E-002	3,804556430016719E-004	4,000000000000000E+000
9,6834503E-002	7,377632791758515E-004	4,000000000000000E+000
1,1279876E-001	1,019899482478784E-003	4,000000000000000E+000
1,2880546E-001	1,239106881257617E-003	4,000000000000000E+000
1,4482169E-001	1,395171436376616E-003	4,000000000000000E+000
1,6081353E-001	1,523981179532174E-003	4,000000000000000E+000
1,7680535E-001	1,671871575429886E-003	4,000000000000000E+000
1,9283539E-001	1,783662816807112E-003	4,000000000000000E+000
2,0883675E-001	1,897060371346834E-003	4,000000000000000E+000
2,2483708E-001	1,998212720974592E-003	4,000000000000000E+000
2,4082893E-001	2,123446958581490E-003	4,000000000000000E+000
2,5682181E-001	2,235296814803771E-003	4,000000000000000E+000
2,7277544E-001	2,379887070371001E-003	4,000000000000000E+000
2,8884366E-001	2,496857665257128E-003	4,000000000000000E+000
3,0478880E-001	2,665695284290625E-003	4,000000000000000E+000
3,2080826E-001	2,811402859892786E-003	4,000000000000000E+000
3,3683616E-001	2,994086270552601E-003	4,000000000000000E+000
3,5279933E-001	3,160917822646693E-003	4,000000000000000E+000
3,5867095E-001	5,415984173008893E-004	4,000000000000000E+000
3,4274599E-001	-3,595333847880725E-004	4,000000000000000E+000
3,2668093E-001	-7,674800417589740E-004	4,000000000000000E+000
3,1070185E-001	-1,063221849310342E-003	4,000000000000000E+000
2,9471105E-001	-1,264111291001666E-003	4,000000000000000E+000
2,7873302E-001	-1,414108830363994E-003	4,000000000000000E+000
2,6275069E-001	-1,513219698271890E-003	4,000000000000000E+000
2,4673767E-001	-1,630831195345520E-003	4,000000000000000E+000
2,3069917E-001	-1,720823412243701E-003	4,000000000000000E+000
2,1468610E-001	-1,775745247195350E-003	4,000000000000000E+000
1,9874308E-001	-1,829051938666785E-003	4,000000000000000E+000
1,8270138E-001	-1,909573132622799E-003	4,000000000000000E+000
1,6671167E-001	-1,965412867085196E-003	4,000000000000000E+000
1,5068588E-001	-2,031513878372838E-003	4,000000000000000E+000
1,3473010E-001	-2,078226788769283E-003	4,000000000000000E+000
1,1876374E-001	-2,161680519175549E-003	4,000000000000000E+000
1,0273690E-001	-2,209876476963808E-003	4,000000000000000E+000
8,6721726E-002	-2,283988115744220E-003	4,000000000000000E+000
7,0712917E-002	-2,345866704504092E-003	4,000000000000000E+000
7,0851885E-002	-7,439063408246153E-005	4,000000000000000E+000
8,6841598E-002	5,141965171383657E-004	4,000000000000000E+000
1,0284086E-001	8,220168845717302E-004	4,000000000000000E+000
1,1883800E-001	1,085665973126496E-003	4,000000000000000E+000
1,3447979E-001	1,238029294957716E-003	4,000000000000000E+000
1,3475987E-001	1,444446388632059E-003	4,000000000000000E+000