File: fig_si_ecsa/CeO2/200.txt
EC-Lab ASCII FILE
Nb header lines : 59

Cyclic Voltammetry

Run on channel : 1 (SN 10336)
User :
CE vs. WE compliance from -10 V to 10 V
Electrode connection : standard
Potential control : Ewe
Ewe ctrl range : min = -2,50 V, max = 2,50 V
Safety Limits :
	Do not start on E overload
Acquisition started on : 10/13/2024 13:58:28.596
Technique started on : 10/13/2024 14:05:53.947
Loaded Setting File :  C:\EC-lab data\Neethu\Methods\CV_ECSA.mps
Saved on :
	File : CV_ECSA_05_CV_C01.mpr
	Directory : C:\EC-lab data\Neethu\2024_10_13_Ni90Fe10_CeO2\CV_ECSA\
	Host : 10.54.33.65
Device : VMP3 (SN 0498)
Address : USB
EC-Lab for windows v11.52 (software)
Internet server v11.52 (firmware)
Command interpretor v11.50 (firmware)
Electrode material :
Initial state :
Electrolyte :
Comments :
Electrode surface area : 0,001 cm²
Characteristic mass : 0,001 g
Volume (V) : 0,001 cm³
Thickness (t) : 0,000 cm
Diameter (d) : 0,000 cm
Cell constant (k=t/A) : 0,000 cm-1
Cycle Definition : Charge/Discharge alternance
Ei (V)              0,064
vs.                 Ref
dE/dt               200,000
dE/dt unit          mV/s
E1 (V)              0,364
vs.                 Ref
Step percent        50
N                   10
E range min (V)     -2,500
E range max (V)     2,500
I Range             Auto
I Range min         Unset
I Range max         Unset
I Range init        Unset
Bandwidth           5
E2 (V)              0,064
vs.                 Ref
nc cycles           3
Reverse Scan        1
Ef (V)              0,070
vs.                 Eoc

Ewe/V	<I>/mA	cycle number
6,8730272E-002	2,118929848074913E-002	1,000000000000000E+000
8,4732935E-002	5,533956831393239E-003	1,000000000000000E+000
1,0069266E-001	6,918252729933155E-003	1,000000000000000E+000
1,1667928E-001	7,768271690441558E-003	1,000000000000000E+000
1,3274273E-001	8,577030345722145E-003	1,000000000000000E+000
1,4870331E-001	9,217225084285005E-003	1,000000000000000E+000
1,6468431E-001	9,664264886768359E-003	1,000000000000000E+000
1,8070954E-001	1,015019784856784E-002	1,000000000000000E+000
1,9672179E-001	1,064581971149892E-002	1,000000000000000E+000
2,1268108E-001	1,120279234320071E-002	1,000000000000000E+000
2,2870719E-001	1,163805393943310E-002	1,000000000000000E+000
2,4469730E-001	1,229660315402727E-002	1,000000000000000E+000
2,6074380E-001	1,276230156723945E-002	1,000000000000000E+000
2,7670744E-001	1,362764377914905E-002	1,000000000000000E+000
2,9266280E-001	1,430827333040890E-002	1,000000000000000E+000
3,0866593E-001	1,521391462764848E-002	1,000000000000000E+000
3,2469338E-001	1,610928283812624E-002	1,000000000000000E+000
3,4069481E-001	1,714779287367890E-002	1,000000000000000E+000
3,5669869E-001	1,812886389424151E-002	1,000000000000000E+000
3,5569787E-001	-2,298683077163362E-003	1,000000000000000E+000
3,3970022E-001	-5,524813030206147E-003	1,000000000000000E+000
3,2371709E-001	-7,326108637204509E-003	1,000000000000000E+000
3,0771166E-001	-8,206652078280779E-003	1,000000000000000E+000
2,9175189E-001	-9,128809751514796E-003	1,000000000000000E+000
2,7573317E-001	-9,506915839169364E-003	1,000000000000000E+000
2,5971270E-001	-1,014117026550757E-002	1,000000000000000E+000
2,4377207E-001	-1,041665113900138E-002	1,000000000000000E+000
2,2770864E-001	-1,077817585246521E-002	1,000000000000000E+000
2,1173848E-001	-1,092046251109097E-002	1,000000000000000E+000
1,9574754E-001	-1,140437799222124E-002	1,000000000000000E+000
1,7975959E-001	-1,180083196132646E-002	1,000000000000000E+000
1,6368315E-001	-1,196891851015441E-002	1,000000000000000E+000
1,4770173E-001	-1,206909128301380E-002	1,000000000000000E+000
1,3174547E-001	-1,267969578359704E-002	1,000000000000000E+000
1,1573149E-001	-1,295130499536090E-002	1,000000000000000E+000
9,9763095E-002	-1,330393754109203E-002	1,000000000000000E+000
8,3706170E-002	-1,345053648467662E-002	1,000000000000000E+000
6,7761637E-002	-1,392716689869383E-002	1,000000000000000E+000
7,1029916E-002	3,572211171044531E-003	2,000000000000000E+000
8,7008469E-002	5,578900328343864E-003	2,000000000000000E+000
1,0298619E-001	6,463620889126519E-003	2,000000000000000E+000
1,1900168E-001	7,530213501566962E-003	2,000000000000000E+000
1,3503006E-001	8,014119227838170E-003	2,000000000000000E+000
1,5099408E-001	8,876003928178222E-003	2,000000000000000E+000
1,6699091E-001	9,324941830013610E-003	2,000000000000000E+000
1,8300763E-001	9,976422280211131E-003	2,000000000000000E+000
1,9899572E-001	1,034776282809305E-002	2,000000000000000E+000
2,1498547E-001	1,095419263947409E-002	2,000000000000000E+000
2,3101594E-001	1,165771327293402E-002	2,000000000000000E+000
2,4701399E-001	1,212509423662006E-002	2,000000000000000E+000
2,6303279E-001	1,261558209649674E-002	2,000000000000000E+000
2,7892751E-001	1,346494690606836E-002	2,000000000000000E+000
2,9499736E-001	1,422506132123252E-002	2,000000000000000E+000
3,1095991E-001	1,532342803991266E-002	2,000000000000000E+000
3,2698169E-001	1,600082284891291E-002	2,000000000000000E+000
3,4295526E-001	1,722685684564407E-002	2,000000000000000E+000
3,5898533E-001	1,803554366911569E-002	2,000000000000000E+000
3,5266760E-001	-3,349511083520738E-003	2,000000000000000E+000
3,3671272E-001	-6,291370079966524E-003	2,000000000000000E+000
3,2073292E-001	-7,753725365467312E-003	2,000000000000000E+000
3,0474156E-001	-8,671236152870479E-003	2,000000000000000E+000
2,8869936E-001	-9,301765201846807E-003	2,000000000000000E+000
2,7269840E-001	-9,898160424861302E-003	2,000000000000000E+000
2,5677514E-001	-1,017099989820218E-002	2,000000000000000E+000
2,4071737E-001	-1,062832052081253E-002	2,000000000000000E+000
2,2472551E-001	-1,080456856553524E-002	2,000000000000000E+000
2,0873454E-001	-1,122147481659004E-002	2,000000000000000E+000
1,9273229E-001	-1,155379846849514E-002	2,000000000000000E+000
1,7676605E-001	-1,180913799659963E-002	2,000000000000000E+000
1,6072690E-001	-1,197161721277305E-002	2,000000000000000E+000
1,4475115E-001	-1,238882749087432E-002	2,000000000000000E+000
1,2877665E-001	-1,279849819101478E-002	2,000000000000000E+000
1,1274577E-001	-1,304307891950887E-002	2,000000000000000E+000
9,6780419E-002	-1,331995532382281E-002	2,000000000000000E+000
8,0759928E-002	-1,371031841402076E-002	2,000000000000000E+000
6,4739019E-002	-1,402883086831769E-002	2,000000000000000E+000
7,3998310E-002	4,073515062491820E-003	3,000000000000000E+000
9,0059482E-002	5,675929404669267E-003	3,000000000000000E+000
1,0601187E-001	6,704668002029138E-003	3,000000000000000E+000
1,2199167E-001	7,408167937050458E-003	3,000000000000000E+000
1,3799927E-001	8,282016625700023E-003	3,000000000000000E+000
1,5398404E-001	8,717239197247428E-003	3,000000000000000E+000
1,7001241E-001	9,325204561837774E-003	3,000000000000000E+000
1,8600594E-001	9,805505534408732E-003	3,000000000000000E+000
2,0199525E-001	1,042652294120716E-002	3,000000000000000E+000
2,1799831E-001	1,089145333263214E-002	3,000000000000000E+000
2,3404244E-001	1,154871214938523E-002	3,000000000000000E+000
2,5002265E-001	1,200256418245695E-002	3,000000000000000E+000
2,6600370E-001	1,270791850243852E-002	3,000000000000000E+000
2,8197974E-001	1,350672451703955E-002	3,000000000000000E+000
2,9798612E-001	1,433086532399658E-002	3,000000000000000E+000
3,1400248E-001	1,519049506301107E-002	3,000000000000000E+000
3,2996523E-001	1,621940068881406E-002	3,000000000000000E+000
3,4595710E-001	1,708778953136728E-002	3,000000000000000E+000
3,6193937E-001	1,821469286964703E-002	3,000000000000000E+000
3,4974569E-001	-4,079661248990472E-003	3,000000000000000E+000
3,3373269E-001	-6,550665014678402E-003	3,000000000000000E+000
3,1770390E-001	-7,874871016452845E-003	3,000000000000000E+000
3,0175495E-001	-8,684642446083177E-003	3,000000000000000E+000
2,8577873E-001	-9,321039305343060E-003	3,000000000000000E+000
2,6972917E-001	-9,786310764452924E-003	3,000000000000000E+000
2,5374773E-001	-1,030994484443162E-002	3,000000000000000E+000
2,3773684E-001	-1,061612282716275E-002	3,000000000000000E+000
2,2174847E-001	-1,082778476021218E-002	3,000000000000000E+000
2,0576270E-001	-1,122823980370991E-002	3,000000000000000E+000
1,8972225E-001	-1,151311781475008E-002	3,000000000000000E+000
1,7374299E-001	-1,181896937007626E-002	3,000000000000000E+000
1,5776680E-001	-1,202283985350565E-002	3,000000000000000E+000
1,4174372E-001	-1,230047581553989E-002	3,000000000000000E+000
1,2573799E-001	-1,268319689783804E-002	3,000000000000000E+000
1,0974227E-001	-1,294454774274942E-002	3,000000000000000E+000
9,3747817E-002	-1,322040442292659E-002	3,000000000000000E+000
7,7750333E-002	-1,365104188979860E-002	3,000000000000000E+000
6,3269176E-002	-1,431873627007008E-002	3,000000000000000E+000
7,6972529E-002	4,305426663766238E-003	4,000000000000000E+000
9,2985541E-002	5,764232055219577E-003	4,000000000000000E+000
1,0904337E-001	6,749635542054532E-003	4,000000000000000E+000
1,2497833E-001	7,498650166108636E-003	4,000000000000000E+000
1,4102663E-001	8,245346497895545E-003	4,000000000000000E+000
1,5700726E-001	8,800966959350481E-003	4,000000000000000E+000
1,7298664E-001	9,356477275223783E-003	4,000000000000000E+000
1,8896766E-001	9,841726075177144E-003	4,000000000000000E+000
2,0498027E-001	1,040023304180387E-002	4,000000000000000E+000
2,2097044E-001	1,090260933668344E-002	4,000000000000000E+000
2,3704198E-001	1,145362878362546E-002	4,000000000000000E+000
2,5301221E-001	1,196637110194350E-002	4,000000000000000E+000
2,6896629E-001	1,277453278532409E-002	4,000000000000000E+000
2,8501290E-001	1,353477247713553E-002	4,000000000000000E+000
3,0101058E-001	1,434885126851129E-002	4,000000000000000E+000
3,1696782E-001	1,523963408114720E-002	4,000000000000000E+000
3,3295181E-001	1,624148195481800E-002	4,000000000000000E+000
3,4896621E-001	1,733476374515297E-002	4,000000000000000E+000
3,6278492E-001	4,733870608146073E-004	4,000000000000000E+000
3,4674907E-001	-4,658063387424827E-003	4,000000000000000E+000
3,3071822E-001	-6,856706817574276E-003	4,000000000000000E+000
3,1468156E-001	-8,051586443679773E-003	4,000000000000000E+000
2,9869848E-001	-8,888461817563947E-003	4,000000000000000E+000
2,8269452E-001	-9,502538822909495E-003	4,000000000000000E+000
2,6676038E-001	-9,895939146438354E-003	4,000000000000000E+000
2,5074077E-001	-1,033077357434112E-002	4,000000000000000E+000
2,3476456E-001	-1,054170563441981E-002	4,000000000000000E+000
2,1871156E-001	-1,089427995314253E-002	4,000000000000000E+000
2,0273533E-001	-1,114710807963670E-002	4,000000000000000E+000
1,8670531E-001	-1,151720507137223E-002	4,000000000000000E+000
1,7077291E-001	-1,173891587165016E-002	4,000000000000000E+000
1,5471901E-001	-1,207581948041150E-002	4,000000000000000E+000
1,3878576E-001	-1,237107283949709E-002	4,000000000000000E+000
1,2270714E-001	-1,276756254182231E-002	4,000000000000000E+000
1,0674439E-001	-1,304721013134855E-002	4,000000000000000E+000
9,0766869E-002	-1,332253100967629E-002	4,000000000000000E+000
7,4758552E-002	-1,366135948972607E-002	4,000000000000000E+000
6,5839052E-002	1,278635713105656E-003	4,000000000000000E+000
8,1833392E-002	4,803229012000199E-003	4,000000000000000E+000
9,7799480E-002	6,096888737295629E-003	4,000000000000000E+000
1,1379215E-001	7,013069097134284E-003	4,000000000000000E+000
1,2980972E-001	7,688936421049168E-003	4,000000000000000E+000
1,3474077E-001	7,860733196139336E-003	4,000000000000000E+000