File: fig_si_ecsa/CeO2/300.txt
EC-Lab ASCII FILE
Nb header lines : 59

Cyclic Voltammetry

Run on channel : 1 (SN 10336)
User :
CE vs. WE compliance from -10 V to 10 V
Electrode connection : standard
Potential control : Ewe
Ewe ctrl range : min = -2,50 V, max = 2,50 V
Safety Limits :
	Do not start on E overload
Acquisition started on : 10/13/2024 13:58:28.596
Technique started on : 10/13/2024 14:06:06.407
Loaded Setting File :  C:\EC-lab data\Neethu\Methods\CV_ECSA.mps
Saved on :
	File : CV_ECSA_06_CV_C01.mpr
	Directory : C:\EC-lab data\Neethu\2024_10_13_Ni90Fe10_CeO2\CV_ECSA\
	Host : 10.54.33.65
Device : VMP3 (SN 0498)
Address : USB
EC-Lab for windows v11.52 (software)
Internet server v11.52 (firmware)
Command interpretor v11.50 (firmware)
Electrode material :
Initial state :
Electrolyte :
Comments :
Electrode surface area : 0,001 cm²
Characteristic mass : 0,001 g
Volume (V) : 0,001 cm³
Thickness (t) : 0,000 cm
Diameter (d) : 0,000 cm
Cell constant (k=t/A) : 0,000 cm-1
Cycle Definition : Charge/Discharge alternance
Ei (V)              0,064
vs.                 Ref
dE/dt               300,000
dE/dt unit          mV/s
E1 (V)              0,364
vs.                 Ref
Step percent        50
N                   10
E range min (V)     -2,500
E range max (V)     2,500
I Range             Auto
I Range min         Unset
I Range max         Unset
I Range init        Unset
Bandwidth           5
E2 (V)              0,064
vs.                 Ref
nc cycles           3
Reverse Scan        1
Ef (V)              0,070
vs.                 Eoc

Ewe/V	<I>/mA	cycle number
7,1689956E-002	2,474315837025642E-002	1,000000000000000E+000
8,7676033E-002	9,064389130677836E-003	1,000000000000000E+000
1,0370607E-001	1,063472086971162E-002	1,000000000000000E+000
1,1967945E-001	1,178680694586851E-002	1,000000000000000E+000
1,3568401E-001	1,238864612241747E-002	1,000000000000000E+000
1,5173377E-001	1,323122825003037E-002	1,000000000000000E+000
1,6764160E-001	1,383854237695531E-002	1,000000000000000E+000
1,8364680E-001	1,466900744914408E-002	1,000000000000000E+000
1,9969656E-001	1,500556925954394E-002	1,000000000000000E+000
2,1566863E-001	1,569059830908373E-002	1,000000000000000E+000
2,3168723E-001	1,662027592331772E-002	1,000000000000000E+000
2,4772170E-001	1,708516846871738E-002	1,000000000000000E+000
2,6361358E-001	1,760243635411220E-002	1,000000000000000E+000
2,7966911E-001	1,883841361038019E-002	1,000000000000000E+000
2,9572138E-001	1,988941847594111E-002	1,000000000000000E+000
3,1168079E-001	2,092257559343130E-002	1,000000000000000E+000
3,2763442E-001	2,214707381766251E-002	1,000000000000000E+000
3,4363580E-001	2,376354193766012E-002	1,000000000000000E+000
3,5969448E-001	2,514349127595786E-002	1,000000000000000E+000
3,5272679E-001	-5,250622978989348E-003	1,000000000000000E+000
3,3673880E-001	-9,164303696403905E-003	1,000000000000000E+000
3,2072848E-001	-1,075849026055949E-002	1,000000000000000E+000
3,0474427E-001	-1,215248769149183E-002	1,000000000000000E+000
2,8874546E-001	-1,285466420752832E-002	1,000000000000000E+000
2,7272180E-001	-1,367419963316932E-002	1,000000000000000E+000
2,5676560E-001	-1,412045917119639E-002	1,000000000000000E+000
2,4076678E-001	-1,447334011609203E-002	1,000000000000000E+000
2,2469662E-001	-1,476979207824725E-002	1,000000000000000E+000
2,0876655E-001	-1,547640388938210E-002	1,000000000000000E+000
1,9278361E-001	-1,577654994337832E-002	1,000000000000000E+000
1,7671095E-001	-1,610604433662954E-002	1,000000000000000E+000
1,6073948E-001	-1,639999232029363E-002	1,000000000000000E+000
1,4472410E-001	-1,699429782214185E-002	1,000000000000000E+000
1,2873164E-001	-1,737160463271720E-002	1,000000000000000E+000
1,1272323E-001	-1,780150248572071E-002	1,000000000000000E+000
9,6758127E-002	-1,808517781610133E-002	1,000000000000000E+000
8,0709018E-002	-1,864372540221662E-002	1,000000000000000E+000
6,4780191E-002	-1,903769127723837E-002	1,000000000000000E+000
7,4941136E-002	7,064775731305400E-003	2,000000000000000E+000
9,0876959E-002	9,049575775437311E-003	2,000000000000000E+000
1,0690761E-001	1,038748245664461E-002	2,000000000000000E+000
1,2290137E-001	1,114311834947637E-002	2,000000000000000E+000
1,3884799E-001	1,211649310935170E-002	2,000000000000000E+000
1,5487486E-001	1,277919766568326E-002	2,000000000000000E+000
1,7089789E-001	1,365376182414670E-002	2,000000000000000E+000
1,8686363E-001	1,377982065338679E-002	2,000000000000000E+000
2,0289108E-001	1,475018179686841E-002	2,000000000000000E+000
2,1886447E-001	1,543302581485478E-002	2,000000000000000E+000
2,3487987E-001	1,620287948341376E-002	2,000000000000000E+000
2,5085515E-001	1,657165593072326E-002	2,000000000000000E+000
2,6690680E-001	1,765689200025611E-002	2,000000000000000E+000
2,8284770E-001	1,882360074669120E-002	2,000000000000000E+000
2,9888478E-001	1,982318405061961E-002	2,000000000000000E+000
3,1481931E-001	2,086867294177253E-002	2,000000000000000E+000
3,3082709E-001	2,239997780658698E-002	2,000000000000000E+000
3,4686089E-001	2,391334777591206E-002	2,000000000000000E+000
3,6277556E-001	2,523757923427186E-002	2,000000000000000E+000
3,4970984E-001	-6,459096260793246E-003	2,000000000000000E+000
3,3375427E-001	-9,766333022465309E-003	2,000000000000000E+000
3,1770581E-001	-1,139398701125174E-002	2,000000000000000E+000
3,0175152E-001	-1,242981810828495E-002	2,000000000000000E+000
2,8574505E-001	-1,337607039010133E-002	2,000000000000000E+000
2,6972073E-001	-1,400189053031986E-002	2,000000000000000E+000
2,5376388E-001	-1,440360394723632E-002	2,000000000000000E+000
2,3774661E-001	-1,468978420113368E-002	2,000000000000000E+000
2,2169621E-001	-1,514285644516350E-002	2,000000000000000E+000
2,0574638E-001	-1,564202270759170E-002	2,000000000000000E+000
1,8971190E-001	-1,602187813077766E-002	2,000000000000000E+000
1,7369525E-001	-1,641858358149565E-002	2,000000000000000E+000
1,5774225E-001	-1,676724246948039E-002	2,000000000000000E+000
1,4175740E-001	-1,706592150245942E-002	2,000000000000000E+000
1,2571210E-001	-1,753811390578144E-002	2,000000000000000E+000
1,0976164E-001	-1,803944633866196E-002	2,000000000000000E+000
9,3806088E-002	-1,835975017226393E-002	2,000000000000000E+000
7,7720694E-002	-1,890923449876331E-002	2,000000000000000E+000
6,3097328E-002	-1,952410116791725E-002	2,000000000000000E+000
7,7899538E-002	7,883334395895308E-003	3,000000000000000E+000
9,3892016E-002	9,279559472815890E-003	3,000000000000000E+000
1,0988703E-001	1,027020895489843E-002	3,000000000000000E+000
1,2588969E-001	1,142460818264224E-002	3,000000000000000E+000
1,4184843E-001	1,218945484094242E-002	3,000000000000000E+000
1,5789118E-001	1,294095204757467E-002	3,000000000000000E+000
1,7392375E-001	1,321522718317285E-002	3,000000000000000E+000
1,8987677E-001	1,423486563859722E-002	3,000000000000000E+000
2,0587431E-001	1,493345621396053E-002	3,000000000000000E+000
2,2192982E-001	1,567292000242262E-002	3,000000000000000E+000
2,3784082E-001	1,590984327012848E-002	3,000000000000000E+000
2,5387341E-001	1,697415507260307E-002	3,000000000000000E+000
2,6989767E-001	1,769889102627834E-002	3,000000000000000E+000
2,8587362E-001	1,879013320710027E-002	3,000000000000000E+000
3,0188835E-001	1,978903867347978E-002	3,000000000000000E+000
3,1784391E-001	2,140852132749088E-002	3,000000000000000E+000
3,3387905E-001	2,283097786979249E-002	3,000000000000000E+000
3,4992942E-001	2,404755841683554E-002	3,000000000000000E+000
3,6301887E-001	8,091038962447891E-004	3,000000000000000E+000
3,4666997E-001	-7,573937464439948E-003	3,000000000000000E+000
3,3072779E-001	-1,033145874995778E-002	3,000000000000000E+000
3,1471238E-001	-1,196999800037396E-002	3,000000000000000E+000
2,9875427E-001	-1,288265592193055E-002	3,000000000000000E+000
2,8273571E-001	-1,368434396839197E-002	3,000000000000000E+000
2,6668337E-001	-1,419274196414333E-002	3,000000000000000E+000
2,5074884E-001	-1,460139518324768E-002	3,000000000000000E+000
2,3473285E-001	-1,505860423797761E-002	3,000000000000000E+000
2,1873783E-001	-1,531157167992206E-002	3,000000000000000E+000
2,0272624E-001	-1,584199822924948E-002	3,000000000000000E+000
1,8673122E-001	-1,624946439830330E-002	3,000000000000000E+000
1,7070693E-001	-1,659341188254379E-002	3,000000000000000E+000
1,5476029E-001	-1,696613459280341E-002	3,000000000000000E+000
1,3875954E-001	-1,752828939206663E-002	3,000000000000000E+000
1,2270278E-001	-1,777614283406963E-002	3,000000000000000E+000
1,0674021E-001	-1,815020319202934E-002	3,000000000000000E+000
9,0763032E-002	-1,870615963234735E-002	3,000000000000000E+000
7,4708812E-002	-1,924681502811532E-002	3,000000000000000E+000
6,5029696E-002	6,115899855634217E-004	4,000000000000000E+000
8,0911420E-002	7,789511428503204E-003	4,000000000000000E+000
9,6890524E-002	8,997751399874687E-003	4,000000000000000E+000
1,1286454E-001	1,047309266274782E-002	4,000000000000000E+000
1,2891302E-001	1,165034856518710E-002	4,000000000000000E+000
1,4485458E-001	1,222602092736147E-002	4,000000000000000E+000
1,6087125E-001	1,264131651720765E-002	4,000000000000000E+000
1,7685989E-001	1,350554606930623E-002	4,000000000000000E+000
1,9283837E-001	1,414760039648777E-002	4,000000000000000E+000
2,0889701E-001	1,483144099256611E-002	4,000000000000000E+000
2,2491686E-001	1,507280112940258E-002	4,000000000000000E+000
2,4081135E-001	1,621917880644713E-002	4,000000000000000E+000
2,5685215E-001	1,664964624263432E-002	4,000000000000000E+000
2,7287900E-001	1,797460921879976E-002	4,000000000000000E+000
2,8886509E-001	1,842729931461996E-002	4,000000000000000E+000
3,0486524E-001	2,004901005663373E-002	4,000000000000000E+000
3,2084179E-001	2,122100239769978E-002	4,000000000000000E+000
3,3690110E-001	2,273785511182118E-002	4,000000000000000E+000
3,5289803E-001	2,373086025060428E-002	4,000000000000000E+000
3,5970020E-001	-7,072387279587625E-004	4,000000000000000E+000
3,4370774E-001	-8,294790807849492E-003	4,000000000000000E+000
3,2774198E-001	-1,082737730794177E-002	4,000000000000000E+000
3,1173488E-001	-1,210068407308429E-002	4,000000000000000E+000
2,9576340E-001	-1,322352560321935E-002	4,000000000000000E+000
2,7975374E-001	-1,404709428012810E-002	4,000000000000000E+000
2,6370078E-001	-1,455725234215294E-002	4,000000000000000E+000
2,4774143E-001	-1,488511320846253E-002	4,000000000000000E+000
2,3176996E-001	-1,542846352931518E-002	4,000000000000000E+000
2,1568520E-001	-1,583442258294473E-002	4,000000000000000E+000
1,9976021E-001	-1,608490731523485E-002	4,000000000000000E+000
1,8373846E-001	-1,639341428490299E-002	4,000000000000000E+000
1,6774534E-001	-1,677937996112938E-002	4,000000000000000E+000
1,5175860E-001	-1,708037451765754E-002	4,000000000000000E+000
1,3571647E-001	-1,766145731695962E-002	4,000000000000000E+000
1,1969217E-001	-1,785903590377218E-002	4,000000000000000E+000
1,0376972E-001	-1,854824648762583E-002	4,000000000000000E+000
8,7770246E-002	-1,887752800879144E-002	4,000000000000000E+000
7,1707763E-002	-1,947520845836451E-002	4,000000000000000E+000
6,7889445E-002	6,878763727157414E-003	4,000000000000000E+000
8,3925843E-002	7,676142736757668E-003	4,000000000000000E+000
9,9854663E-002	9,511644752031603E-003	4,000000000000000E+000
1,1587895E-001	1,035656153192879E-002	4,000000000000000E+000
1,3189435E-001	1,122898329692060E-002	4,000000000000000E+000
1,3477896E-001	1,122359279543161E-002	4,000000000000000E+000