File: fig_si_ecsa/CeO2/50.txt
EC-Lab ASCII FILE
Nb header lines : 59

Cyclic Voltammetry

Run on channel : 1 (SN 10336)
User :
CE vs. WE compliance from -10 V to 10 V
Electrode connection : standard
Potential control : Ewe
Ewe ctrl range : min = -2,50 V, max = 2,50 V
Safety Limits :
	Do not start on E overload
Acquisition started on : 10/13/2024 13:58:28.596
Technique started on : 10/13/2024 14:04:39.619
Loaded Setting File :  C:\EC-lab data\Neethu\Methods\CV_ECSA.mps
Saved on :
	File : CV_ECSA_03_CV_C01.mpr
	Directory : C:\EC-lab data\Neethu\2024_10_13_Ni90Fe10_CeO2\CV_ECSA\
	Host : 10.54.33.65
Device : VMP3 (SN 0498)
Address : USB
EC-Lab for windows v11.52 (software)
Internet server v11.52 (firmware)
Command interpretor v11.50 (firmware)
Electrode material :
Initial state :
Electrolyte :
Comments :
Electrode surface area : 0,001 cm²
Characteristic mass : 0,001 g
Volume (V) : 0,001 cm³
Thickness (t) : 0,000 cm
Diameter (d) : 0,000 cm
Cell constant (k=t/A) : 0,000 cm-1
Cycle Definition : Charge/Discharge alternance
Ei (V)              0,064
vs.                 Ref
dE/dt               50,000
dE/dt unit          mV/s
E1 (V)              0,364
vs.                 Ref
Step percent        50
N                   10
E range min (V)     -2,500
E range max (V)     2,500
I Range             Auto
I Range min         Unset
I Range max         Unset
I Range init        Unset
Bandwidth           5
E2 (V)              0,064
vs.                 Ref
nc cycles           3
Reverse Scan        1
Ef (V)              0,070
vs.                 Eoc

Ewe/V	<I>/mA	cycle number
6,4300291E-002	1,394405961036682E-002	1,000000000000000E+000
8,1766643E-002	1,057462650856501E-003	1,000000000000000E+000
9,7736202E-002	1,937650906863077E-003	1,000000000000000E+000
1,1373547E-001	2,430177369509096E-003	1,000000000000000E+000
1,2974958E-001	2,793281710182775E-003	1,000000000000000E+000
1,4577535E-001	3,081257901309680E-003	1,000000000000000E+000
1,6169930E-001	3,335412214760761E-003	1,000000000000000E+000
1,7767523E-001	3,551129735569706E-003	1,000000000000000E+000
1,9371480E-001	3,761271077665794E-003	1,000000000000000E+000
2,0972678E-001	3,955618418937469E-003	1,000000000000000E+000
2,2572286E-001	4,172732462191367E-003	1,000000000000000E+000
2,4168710E-001	4,384062235961517E-003	1,000000000000000E+000
2,5771818E-001	4,608303245024412E-003	1,000000000000000E+000
2,7370048E-001	4,856573531772788E-003	1,000000000000000E+000
2,8969336E-001	5,131430279612284E-003	1,000000000000000E+000
3,0568737E-001	5,413520921946552E-003	1,000000000000000E+000
3,2162720E-001	5,731848181312699E-003	1,000000000000000E+000
3,3769962E-001	6,058643455617130E-003	1,000000000000000E+000
3,5370421E-001	6,368746949899824E-003	1,000000000000000E+000
3,5871127E-001	6,574134435292478E-004	1,000000000000000E+000
3,4272158E-001	-9,920288820366198E-004	1,000000000000000E+000
3,2669261E-001	-1,696163700823185E-003	1,000000000000000E+000
3,1070390E-001	-2,234460281368717E-003	1,000000000000000E+000
2,9470471E-001	-2,567689135604369E-003	1,000000000000000E+000
2,7875000E-001	-2,841771857169474E-003	1,000000000000000E+000
2,6276985E-001	-2,999768687004682E-003	1,000000000000000E+000
2,4669418E-001	-3,223999664138923E-003	1,000000000000000E+000
2,3071191E-001	-3,405820194934163E-003	1,000000000000000E+000
2,1469674E-001	-3,512824753973576E-003	1,000000000000000E+000
1,9874625E-001	-3,601656205218101E-003	1,000000000000000E+000
1,8268760E-001	-3,780434990605687E-003	1,000000000000000E+000
1,6669574E-001	-3,888549280519427E-003	1,000000000000000E+000
1,5069968E-001	-4,023191555865582E-003	1,000000000000000E+000
1,3476619E-001	-4,101873476530356E-003	1,000000000000000E+000
1,1869478E-001	-4,272935158143018E-003	1,000000000000000E+000
1,0271038E-001	-4,368691391088461E-003	1,000000000000000E+000
8,6727031E-002	-4,534702781610455E-003	1,000000000000000E+000
7,0739433E-002	-4,638634673837152E-003	1,000000000000000E+000
6,9913067E-002	2,477328041708112E-004	2,000000000000000E+000
8,5935660E-002	1,155187051558147E-003	2,000000000000000E+000
1,0193174E-001	1,734298034231571E-003	2,000000000000000E+000
1,1795752E-001	2,166396051001770E-003	2,000000000000000E+000
1,3395995E-001	2,513511250476275E-003	2,000000000000000E+000
1,4991997E-001	2,790820690279354E-003	2,000000000000000E+000
1,6587469E-001	3,033256086281549E-003	2,000000000000000E+000
1,8191850E-001	3,286438769767621E-003	2,000000000000000E+000
1,9791245E-001	3,513195243309994E-003	2,000000000000000E+000
2,1388094E-001	3,708860465849291E-003	2,000000000000000E+000
2,2990355E-001	3,943581899673337E-003	2,000000000000000E+000
2,4592507E-001	4,186236880438336E-003	2,000000000000000E+000
2,6193815E-001	4,446606673203284E-003	2,000000000000000E+000
2,7788541E-001	4,705519037896837E-003	2,000000000000000E+000
2,9392391E-001	5,004428345273482E-003	2,000000000000000E+000
3,0992478E-001	5,301294113124133E-003	2,000000000000000E+000
3,2592353E-001	5,631248919396774E-003	2,000000000000000E+000
3,4186655E-001	5,959737480427267E-003	2,000000000000000E+000
3,5787535E-001	6,293578379781034E-003	2,000000000000000E+000
3,5370108E-001	-2,460696279816446E-004	2,000000000000000E+000
3,3772194E-001	-1,407267904141913E-003	2,000000000000000E+000
3,2170996E-001	-2,034755644166980E-003	2,000000000000000E+000
3,0572551E-001	-2,453225797176446E-003	2,000000000000000E+000
2,8974646E-001	-2,766095542837209E-003	2,000000000000000E+000
2,7371746E-001	-3,002943279675992E-003	2,000000000000000E+000
2,5772992E-001	-3,203460213828495E-003	2,000000000000000E+000
2,4171895E-001	-3,360918651095640E-003	2,000000000000000E+000
2,2569744E-001	-3,498063880518496E-003	2,000000000000000E+000
2,0969179E-001	-3,644098617062094E-003	2,000000000000000E+000
1,9374238E-001	-3,758572605066637E-003	2,000000000000000E+000
1,7770280E-001	-3,886281920737634E-003	2,000000000000000E+000
1,6171415E-001	-4,002024128163223E-003	2,000000000000000E+000
1,4578065E-001	-4,129528673527394E-003	2,000000000000000E+000
1,2978140E-001	-4,250931196616452E-003	2,000000000000000E+000
1,1373334E-001	-4,375043640417658E-003	2,000000000000000E+000
9,7712867E-002	-4,504161861000774E-003	2,000000000000000E+000
8,1704050E-002	-4,661122222993662E-003	2,000000000000000E+000
6,5707974E-002	-4,773799224898914E-003	2,000000000000000E+000
7,4923307E-002	5,282352756997488E-004	3,000000000000000E+000
9,0937428E-002	1,304832205379275E-003	3,000000000000000E+000
1,0691122E-001	1,813190388525579E-003	3,000000000000000E+000
1,2287972E-001	2,204640067349022E-003	3,000000000000000E+000
1,3890763E-001	2,524021593975103E-003	3,000000000000000E+000
1,5491113E-001	2,821988057702486E-003	3,000000000000000E+000
1,7089872E-001	3,068137229800231E-003	3,000000000000000E+000
1,8691921E-001	3,298669772751364E-003	3,000000000000000E+000
2,0287390E-001	3,530564717342112E-003	3,000000000000000E+000
2,1890603E-001	3,748719976809103E-003	3,000000000000000E+000
2,3491165E-001	3,977489078048776E-003	3,000000000000000E+000
2,5091410E-001	4,235458941871509E-003	3,000000000000000E+000
2,6685613E-001	4,494767520858062E-003	3,000000000000000E+000
2,8291899E-001	4,769222504465820E-003	3,000000000000000E+000
2,9889813E-001	5,072149630804143E-003	3,000000000000000E+000
3,1491750E-001	5,388104668478860E-003	3,000000000000000E+000
3,3084995E-001	5,698130567098940E-003	3,000000000000000E+000
3,4690759E-001	6,055216642481473E-003	3,000000000000000E+000
3,6283922E-001	6,391030691247582E-003	3,000000000000000E+000
3,4869823E-001	-7,082679460634362E-004	3,000000000000000E+000
3,3269471E-001	-1,626699349597191E-003	3,000000000000000E+000
3,1666896E-001	-2,181797596980076E-003	3,000000000000000E+000
3,0076197E-001	-2,566172684358502E-003	3,000000000000000E+000
2,8474680E-001	-2,849900812280887E-003	3,000000000000000E+000
2,6869661E-001	-3,087303683464090E-003	3,000000000000000E+000
2,5273553E-001	-3,272117326357850E-003	3,000000000000000E+000
2,3672993E-001	-3,426984758536693E-003	3,000000000000000E+000
2,2073703E-001	-3,570035993713330E-003	3,000000000000000E+000
2,0470700E-001	-3,692561130365993E-003	3,000000000000000E+000
1,8873109E-001	-3,816277267307861E-003	3,000000000000000E+000
1,7274559E-001	-3,930030680647970E-003	3,000000000000000E+000
1,5672405E-001	-4,050256689677344E-003	3,000000000000000E+000
1,4070784E-001	-4,181601384819544E-003	3,000000000000000E+000
1,2472873E-001	-4,305411080875055E-003	3,000000000000000E+000
1,0876129E-001	-4,428181218827369E-003	3,000000000000000E+000
9,2770509E-002	-4,560556068301774E-003	3,000000000000000E+000
7,6767005E-002	-4,691224966841715E-003	3,000000000000000E+000
6,3941717E-002	-3,994825452764382E-004	4,000000000000000E+000
7,9948410E-002	7,735010451344554E-004	4,000000000000000E+000
9,5943421E-002	1,452202092170610E-003	4,000000000000000E+000
1,1189070E-001	1,903323314864910E-003	4,000000000000000E+000
1,2788041E-001	2,285346161241059E-003	4,000000000000000E+000
1,4394757E-001	2,603836142346464E-003	4,000000000000000E+000
1,5988213E-001	2,881284371849487E-003	4,000000000000000E+000
1,7591321E-001	3,119364002688814E-003	4,000000000000000E+000
1,9190928E-001	3,367216190680575E-003	4,000000000000000E+000
2,0793825E-001	3,579580608452988E-003	4,000000000000000E+000
2,2389507E-001	3,806479475719653E-003	4,000000000000000E+000
2,3994313E-001	4,053769912894092E-003	4,000000000000000E+000
2,5592119E-001	4,301730347732582E-003	4,000000000000000E+000
2,7189815E-001	4,560871023891707E-003	4,000000000000000E+000
2,8792816E-001	4,861575243719732E-003	4,000000000000000E+000
3,0389348E-001	5,158627392827657E-003	4,000000000000000E+000
3,1988853E-001	5,486272262512813E-003	4,000000000000000E+000
3,3591750E-001	5,816567096594047E-003	4,000000000000000E+000
3,5186586E-001	6,151519055694943E-003	4,000000000000000E+000
3,5967875E-001	6,851445404613046E-004	4,000000000000000E+000
3,4368587E-001	-1,043624350030665E-003	4,000000000000000E+000
3,2768869E-001	-1,803858009124165E-003	4,000000000000000E+000
3,1167355E-001	-2,301260322484365E-003	4,000000000000000E+000
2,9572091E-001	-2,672208697428379E-003	4,000000000000000E+000
2,7967820E-001	-2,944644269518890E-003	4,000000000000000E+000
2,6368427E-001	-3,135722768800191E-003	4,000000000000000E+000
2,4771895E-001	-3,313427944805068E-003	4,000000000000000E+000
2,3176211E-001	-3,458976311069110E-003	4,000000000000000E+000
2,1571617E-001	-3,581266117382444E-003	4,000000000000000E+000
1,9969356E-001	-3,721569051372650E-003	4,000000000000000E+000
1,8370916E-001	-3,824502622794372E-003	4,000000000000000E+000
1,6770354E-001	-3,965706009492143E-003	4,000000000000000E+000
1,5174140E-001	-4,092931682761342E-003	4,000000000000000E+000
1,3572836E-001	-4,210729563055765E-003	4,000000000000000E+000
1,1976834E-001	-4,340739645461639E-003	4,000000000000000E+000
1,0370649E-001	-4,480525669754945E-003	4,000000000000000E+000
8,7714650E-002	-4,618398518181910E-003	4,000000000000000E+000
7,1715392E-002	-4,759846872426962E-003	4,000000000000000E+000
6,8913765E-002	4,671780730960694E-005	4,000000000000000E+000
8,4924705E-002	9,979789264333572E-004	4,000000000000000E+000
1,0097382E-001	1,572688003458708E-003	4,000000000000000E+000
1,1691367E-001	2,025132824605362E-003	4,000000000000000E+000
1,3293946E-001	2,379581989266133E-003	4,000000000000000E+000
1,3477896E-001	2,459245656306543E-003	4,000000000000000E+000